timestampMs,poorSignal,eegRawValue,eegRawValueVolts,attention,meditation,blinkStrength,delta,theta,alphaLow,alphaHigh,betaLow,betaHigh,gammaLow,gammaMid,tagEvent,location
1776112552269,200,88,1.93359375E-5,0,0,0,1233395,795792,417903,589987,861190,860020,144972,194784,Tag0,unknown
1776112552269,200,87,1.91162109375E-5,0,0,0,1233395,795792,417903,589987,861190,860020,144972,194784,Tag0,unknown
1776112552269,200,85,1.86767578125E-5,0,0,0,1233395,795792,417903,589987,861190,860020,144972,194784,Tag0,unknown
1776112552275,200,84,1.8457031250000004E-5,0,0,0,1233395,795792,417903,589987,861190,860020,144972,194784,Tag0,unknown
1776112552275,200,83,1.82373046875E-5,0,0,0,1233395,795792,417903,589987,861190,860020,144972,194784,Tag0,unknown
1776112552276,200,81,1.77978515625E-5,0,0,0,1233395,795792,417903,589987,861190,860020,144972,194784,Tag0,unknown
1776112552276,200,80,1.7578125E-5,0,0,0,1233395,795792,417903,589987,861190,860020,144972,194784,Tag0,unknown
1776112552276,200,76,1.669921875E-5,0,0,0,1233395,795792,417903,589987,861190,860020,144972,194784,Tag0,unknown
1776112552277,200,75,1.64794921875E-5,0,0,0,1233395,795792,417903,589987,861190,860020,144972,194784,Tag0,unknown
1776112552277,200,74,1.6259765625E-5,0,0,0,1233395,795792,417903,589987,861190,860020,144972,194784,Tag0,unknown
1776112552278,200,73,1.6040039062500002E-5,0,0,0,1233395,795792,417903,589987,861190,860020,144972,194784,Tag0,unknown
1776112552278,200,72,1.58203125E-5,0,0,0,1233395,795792,417903,589987,861190,860020,144972,194784,Tag0,unknown
1776112552291,200,71,1.56005859375E-5,0,0,0,1233395,795792,417903,589987,861190,860020,144972,194784,Tag0,unknown
1776112552292,200,70,1.5380859375E-5,0,0,0,1233395,795792,417903,589987,861190,860020,144972,194784,Tag0,unknown
1776112552292,200,69,1.51611328125E-5,0,0,0,1233395,795792,417903,589987,861190,860020,144972,194784,Tag0,unknown
1776112552293,200,68,1.4941406250000001E-5,0,0,0,1233395,795792,417903,589987,861190,860020,144972,194784,Tag0,unknown
1776112552293,200,67,1.4721679687500002E-5,0,0,0,1233395,795792,417903,589987,861190,860020,144972,194784,Tag0,unknown
1776112552293,200,67,1.4721679687500002E-5,0,0,0,1233395,795792,417903,589987,861190,860020,144972,194784,Tag0,unknown
1776112552294,200,66,1.4501953125E-5,0,0,0,1233395,795792,417903,589987,861190,860020,144972,194784,Tag0,unknown
1776112552308,200,65,1.42822265625E-5,0,0,0,1233395,795792,417903,589987,861190,860020,144972,194784,Tag0,unknown
1776112552308,200,65,1.42822265625E-5,0,0,0,1233395,795792,417903,589987,861190,860020,144972,194784,Tag0,unknown
1776112552309,200,65,1.42822265625E-5,0,0,0,1233395,795792,417903,589987,861190,860020,144972,194784,Tag0,unknown
1776112552309,200,64,1.40625E-5,0,0,0,1233395,795792,417903,589987,861190,860020,144972,194784,Tag0,unknown
1776112552309,200,60,1.318359375E-5,0,0,0,1233395,795792,417903,589987,861190,860020,144972,194784,Tag0,unknown
1776112552310,200,59,1.29638671875E-5,0,0,0,1233395,795792,417903,589987,861190,860020,144972,194784,Tag0,unknown
1776112552310,200,58,1.2744140625E-5,0,0,0,1233395,795792,417903,589987,861190,860020,144972,194784,Tag0,unknown
1776112552310,200,59,1.29638671875E-5,0,0,0,1233395,795792,417903,589987,861190,860020,144972,194784,Tag0,unknown
1776112552310,200,60,1.318359375E-5,0,0,0,1233395,795792,417903,589987,861190,860020,144972,194784,Tag0,unknown
1776112552325,200,61,1.34033203125E-5,0,0,0,1233395,795792,417903,589987,861190,860020,144972,194784,Tag0,unknown
1776112552325,200,60,1.318359375E-5,0,0,0,1233395,795792,417903,589987,861190,860020,144972,194784,Tag0,unknown
1776112552325,200,57,1.2524414062500001E-5,0,0,0,1233395,795792,417903,589987,861190,860020,144972,194784,Tag0,unknown
1776112552326,200,55,1.20849609375E-5,0,0,0,1233395,795792,417903,589987,861190,860020,144972,194784,Tag0,unknown
1776112552326,200,54,1.1865234375000001E-5,0,0,0,1233395,795792,417903,589987,861190,860020,144972,194784,Tag0,unknown
1776112552326,200,55,1.20849609375E-5,0,0,0,1233395,795792,417903,589987,861190,860020,144972,194784,Tag0,unknown
1776112552326,200,55,1.20849609375E-5,0,0,0,1233395,795792,417903,589987,861190,860020,144972,194784,Tag0,unknown
1776112552327,200,55,1.20849609375E-5,0,0,0,1233395,795792,417903,589987,861190,860020,144972,194784,Tag0,unknown
1776112552341,200,55,1.20849609375E-5,0,0,0,1233395,795792,417903,589987,861190,860020,144972,194784,Tag0,unknown
1776112552342,200,54,1.1865234375000001E-5,0,0,0,1233395,795792,417903,589987,861190,860020,144972,194784,Tag0,unknown
1776112552343,200,53,1.1645507812500002E-5,0,0,0,1233395,795792,417903,589987,861190,860020,144972,194784,Tag0,unknown
1776112552343,200,51,1.1206054687499999E-5,0,0,0,1233395,795792,417903,589987,861190,860020,144972,194784,Tag0,unknown
1776112552343,200,51,1.1206054687499999E-5,0,0,0,1233395,795792,417903,589987,861190,860020,144972,194784,Tag0,unknown
1776112552344,200,51,1.1206054687499999E-5,0,0,0,1233395,795792,417903,589987,861190,860020,144972,194784,Tag0,unknown
1776112552344,200,51,1.1206054687499999E-5,0,0,0,1233395,795792,417903,589987,861190,860020,144972,194784,Tag0,unknown
1776112552344,200,51,1.1206054687499999E-5,0,0,0,1233395,795792,417903,589987,861190,860020,144972,194784,Tag0,unknown
1776112552345,200,51,1.1206054687499999E-5,0,0,0,1233395,795792,417903,589987,861190,860020,144972,194784,Tag0,unknown
1776112552345,200,51,1.1206054687499999E-5,0,0,0,1233395,795792,417903,589987,861190,860020,144972,194784,Tag0,unknown
1776112552359,200,50,1.0986328125E-5,0,0,0,1233395,795792,417903,589987,861190,860020,144972,194784,Tag0,unknown
1776112552359,200,49,1.07666015625E-5,0,0,0,1233395,795792,417903,589987,861190,860020,144972,194784,Tag0,unknown
1776112552359,200,49,1.07666015625E-5,0,0,0,1233395,795792,417903,589987,861190,860020,144972,194784,Tag0,unknown
1776112552359,200,48,1.0546875E-5,0,0,0,1233395,795792,417903,589987,861190,860020,144972,194784,Tag0,unknown
1776112552360,200,48,1.0546875E-5,0,0,0,1233395,795792,417903,589987,861190,860020,144972,194784,Tag0,unknown
1776112552360,200,49,1.07666015625E-5,0,0,0,1233395,795792,417903,589987,861190,860020,144972,194784,Tag0,unknown
1776112552360,200,49,1.07666015625E-5,0,0,0,1233395,795792,417903,589987,861190,860020,144972,194784,Tag0,unknown
1776112552361,200,53,1.1645507812500002E-5,0,0,0,1233395,795792,417903,589987,861190,860020,144972,194784,Tag0,unknown
1776112552375,200,12,2.63671875E-6,0,0,0,1233395,795792,417903,589987,861190,860020,144972,194784,Tag0,unknown
1776112552376,200,-865,-1.900634765625E-4,0,0,0,1233395,795792,417903,589987,861190,860020,144972,194784,Tag0,unknown
1776112552376,200,-1002,-2.20166015625E-4,0,0,0,1233395,795792,417903,589987,861190,860020,144972,194784,Tag0,unknown
1776112552376,200,-445,-9.77783203125E-5,0,0,0,1233395,795792,417903,589987,861190,860020,144972,194784,Tag0,unknown
1776112552376,200,-372,-8.173828125E-5,0,0,0,1233395,795792,417903,589987,861190,860020,144972,194784,Tag0,unknown
1776112552377,200,90,1.9775390625E-5,0,0,0,1233395,795792,417903,589987,861190,860020,144972,194784,Tag0,unknown
1776112552377,200,-120,-2.63671875E-5,0,0,0,1233395,795792,417903,589987,861190,860020,144972,194784,Tag0,unknown
1776112552377,200,59,1.29638671875E-5,0,0,0,1233395,795792,417903,589987,861190,860020,144972,194784,Tag0,unknown
1776112552391,200,-179,-3.93310546875E-5,0,0,0,1233395,795792,417903,589987,861190,860020,144972,194784,Tag0,unknown
1776112552392,200,-1050,-2.30712890625E-4,0,0,0,1233395,795792,417903,589987,861190,860020,144972,194784,Tag0,unknown
1776112552392,200,-1461,-3.2102050781250004E-4,0,0,0,1233395,795792,417903,589987,861190,860020,144972,194784,Tag0,unknown
1776112552392,200,-839,-1.843505859375E-4,0,0,0,1233395,795792,417903,589987,861190,860020,144972,194784,Tag0,unknown
1776112552392,200,107,2.35107421875E-5,0,0,0,1233395,795792,417903,589987,861190,860020,144972,194784,Tag0,unknown
1776112552393,200,-125,-2.74658203125E-5,0,0,0,1233395,795792,417903,589987,861190,860020,144972,194784,Tag0,unknown
1776112552393,200,64,1.40625E-5,0,0,0,1233395,795792,417903,589987,861190,860020,144972,194784,Tag0,unknown
1776112552393,200,-628,-1.3798828125E-4,0,0,0,1233395,795792,417903,589987,861190,860020,144972,194784,Tag0,unknown
1776112552394,200,-1416,-3.1113281250000005E-4,0,0,0,1233395,795792,417903,589987,861190,860020,144972,194784,Tag0,unknown
1776112552409,200,-2076,-4.5615234375E-4,0,0,0,1233395,795792,417903,589987,861190,860020,144972,194784,Tag0,unknown
1776112552409,200,-2172,-4.7724609374999997E-4,0,0,0,1233395,795792,417903,589987,861190,860020,144972,194784,Tag0,unknown
1776112552410,200,-1142,-2.50927734375E-4,0,0,0,1233395,795792,417903,589987,861190,860020,144972,194784,Tag0,unknown
1776112552411,200,176,3.8671875E-5,0,0,0,1233395,795792,417903,589987,861190,860020,144972,194784,Tag0,unknown
1776112552412,200,233,5.1196289062500006E-5,0,0,0,1233395,795792,417903,589987,861190,860020,144972,194784,Tag0,unknown
1776112552412,200,166,3.6474609375E-5,0,0,0,1233395,795792,417903,589987,861190,860020,144972,194784,Tag0,unknown
1776112552413,200,33,7.2509765625E-6,0,0,0,1233395,795792,417903,589987,861190,860020,144972,194784,Tag0,unknown
1776112552413,200,-1911,-4.198974609375E-4,0,0,0,1233395,795792,417903,589987,861190,860020,144972,194784,Tag0,unknown
1776112552414,200,-2048,-4.5E-4,0,0,0,1233395,795792,417903,589987,861190,860020,144972,194784,Tag0,unknown
1776112552425,200,-2048,-4.5E-4,0,0,0,1233395,795792,417903,589987,861190,860020,144972,194784,Tag0,unknown
1776112552426,200,-2048,-4.5E-4,0,0,0,1233395,795792,417903,589987,861190,860020,144972,194784,Tag0,unknown
1776112552426,200,-2048,-4.5E-4,0,0,0,1233395,795792,417903,589987,861190,860020,144972,194784,Tag0,unknown
1776112552427,200,-2048,-4.5E-4,0,0,0,1233395,795792,417903,589987,861190,860020,144972,194784,Tag0,unknown
1776112552427,200,-2048,-4.5E-4,0,0,0,1233395,795792,417903,589987,861190,860020,144972,194784,Tag0,unknown
1776112552427,200,-2048,-4.5E-4,0,0,0,1233395,795792,417903,589987,861190,860020,144972,194784,Tag0,unknown
1776112552428,200,-2048,-4.5E-4,0,0,0,1233395,795792,417903,589987,861190,860020,144972,194784,Tag0,unknown
1776112552429,200,-2048,-4.5E-4,0,0,0,1233395,795792,417903,589987,861190,860020,144972,194784,Tag0,unknown
1776112552429,200,-2048,-4.5E-4,0,0,0,1233395,795792,417903,589987,861190,860020,144972,194784,Tag0,unknown
1776112552442,200,-2048,-4.5E-4,0,0,0,1233395,795792,417903,589987,861190,860020,144972,194784,Tag0,unknown
1776112552442,200,-2048,-4.5E-4,0,0,0,1233395,795792,417903,589987,861190,860020,144972,194784,Tag0,unknown
1776112552443,200,-2048,-4.5E-4,0,0,0,1233395,795792,417903,589987,861190,860020,144972,194784,Tag0,unknown
1776112552443,200,-2048,-4.5E-4,0,0,0,1233395,795792,417903,589987,861190,860020,144972,194784,Tag0,unknown
1776112552444,200,-2048,-4.5E-4,0,0,0,1233395,795792,417903,589987,861190,860020,144972,194784,Tag0,unknown
1776112552444,200,-2048,-4.5E-4,0,0,0,1233395,795792,417903,589987,861190,860020,144972,194784,Tag0,unknown
1776112552445,200,-2048,-4.5E-4,0,0,0,1233395,795792,417903,589987,861190,860020,144972,194784,Tag0,unknown
1776112552445,200,-2048,-4.5E-4,0,0,0,1233395,795792,417903,589987,861190,860020,144972,194784,Tag0,unknown
1776112552458,200,-2048,-4.5E-4,0,0,0,1233395,795792,417903,589987,861190,860020,144972,194784,Tag0,unknown
1776112552458,200,-2048,-4.5E-4,0,0,0,1233395,795792,417903,589987,861190,860020,144972,194784,Tag0,unknown
1776112552458,200,-2048,-4.5E-4,0,0,0,1233395,795792,417903,589987,861190,860020,144972,194784,Tag0,unknown
1776112552458,200,-2010,-4.41650390625E-4,0,0,0,1233395,795792,417903,589987,861190,860020,144972,194784,Tag0,unknown
1776112552459,200,-1939,-4.260498046875E-4,0,0,0,1233395,795792,417903,589987,861190,860020,144972,194784,Tag0,unknown
1776112552459,200,-2124,-4.6669921875000005E-4,0,0,0,1233395,795792,417903,589987,861190,860020,144972,194784,Tag0,unknown
1776112552459,200,-2058,-4.52197265625E-4,0,0,0,1233395,795792,417903,589987,861190,860020,144972,194784,Tag0,unknown
1776112552459,200,-1736,-3.814453125E-4,0,0,0,1233395,795792,417903,589987,861190,860020,144972,194784,Tag0,unknown
1776112552476,200,-1671,-3.671630859375E-4,0,0,0,1233395,795792,417903,589987,861190,860020,144972,194784,Tag0,unknown
1776112552476,200,-1864,-4.0957031250000005E-4,0,0,0,1233395,795792,417903,589987,861190,860020,144972,194784,Tag0,unknown
1776112552476,200,-1803,-3.961669921875E-4,0,0,0,1233395,795792,417903,589987,861190,860020,144972,194784,Tag0,unknown
1776112552476,200,-1491,-3.276123046875E-4,0,0,0,1233395,795792,417903,589987,861190,860020,144972,194784,Tag0,unknown
1776112552477,200,-1435,-3.153076171875E-4,0,0,0,1233395,795792,417903,589987,861190,860020,144972,194784,Tag0,unknown
1776112552477,200,-1638,-3.59912109375E-4,0,0,0,1233395,795792,417903,589987,861190,860020,144972,194784,Tag0,unknown
1776112552477,200,-1587,-3.487060546875E-4,0,0,0,1233395,795792,417903,589987,861190,860020,144972,194784,Tag0,unknown
1776112552477,200,-1538,-3.37939453125E-4,0,0,0,1233395,795792,417903,589987,861190,860020,144972,194784,Tag0,unknown
1776112552478,200,-1234,-2.71142578125E-4,0,0,0,1233395,795792,417903,589987,861190,860020,144972,194784,Tag0,unknown
1776112552491,200,-1186,-2.6059570312500003E-4,0,0,0,1233395,795792,417903,589987,861190,860020,144972,194784,Tag0,unknown
1776112552492,200,-1397,-3.0695800781249997E-4,0,0,0,1233395,795792,417903,589987,861190,860020,144972,194784,Tag0,unknown
1776112552492,200,-1352,-2.9707031249999997E-4,0,0,0,1233395,795792,417903,589987,861190,860020,144972,194784,Tag0,unknown
1776112552492,200,-1309,-2.8762207031250004E-4,0,0,0,1233395,795792,417903,589987,861190,860020,144972,194784,Tag0,unknown
1776112552493,200,-1015,-2.230224609375E-4,0,0,0,1233395,795792,417903,589987,861190,860020,144972,194784,Tag0,unknown
1776112552493,200,-974,-2.14013671875E-4,0,0,0,1233395,795792,417903,589987,861190,860020,144972,194784,Tag0,unknown
1776112552493,200,-938,-2.0610351562500002E-4,0,0,0,1233395,795792,417903,589987,861190,860020,144972,194784,Tag0,unknown
1776112552493,200,-904,-1.986328125E-4,0,0,0,1233395,795792,417903,589987,861190,860020,144972,194784,Tag0,unknown
1776112552508,200,-1125,-2.471923828125E-4,0,0,0,1233395,795792,417903,589987,861190,860020,144972,194784,Tag0,unknown
1776112552508,200,-1092,-2.3994140625000003E-4,0,0,0,1233395,795792,417903,589987,861190,860020,144972,194784,Tag0,unknown
1776112552509,200,-1059,-2.3269042968750001E-4,0,0,0,1233395,795792,417903,589987,861190,860020,144972,194784,Tag0,unknown
1776112552509,200,-741,-1.6281738281249998E-4,0,0,0,1233395,795792,417903,589987,861190,860020,144972,194784,Tag0,unknown
1776112552509,200,-201,-4.41650390625E-5,0,0,0,1233395,795792,417903,589987,861190,860020,144972,194784,Tag0,unknown
1776112552509,200,853,1.874267578125E-4,0,0,0,1233395,795792,417903,589987,861190,860020,144972,194784,Tag0,unknown
1776112552510,200,1721,3.7814941406250004E-4,0,0,0,1233395,795792,417903,589987,861190,860020,144972,194784,Tag0,unknown
1776112552510,200,1622,3.56396484375E-4,0,0,0,1233395,795792,417903,589987,861190,860020,144972,194784,Tag0,unknown
1776112552510,200,-312,-6.85546875E-5,0,0,0,1233395,795792,417903,589987,861190,860020,144972,194784,Tag0,unknown
1776112552525,200,-1131,-2.485107421875E-4,0,0,0,1233395,795792,417903,589987,861190,860020,144972,194784,Tag0,unknown
1776112552526,200,-1140,-2.5048828125E-4,0,0,0,1233395,795792,417903,589987,861190,860020,144972,194784,Tag0,unknown
1776112552526,200,-1035,-2.274169921875E-4,0,0,0,1233395,795792,417903,589987,861190,860020,144972,194784,Tag0,unknown
1776112552526,200,-636,-1.3974609375E-4,0,0,0,1233395,795792,417903,589987,861190,860020,144972,194784,Tag0,unknown
1776112552526,200,-359,-7.88818359375E-5,0,0,0,1233395,795792,417903,589987,861190,860020,144972,194784,Tag0,unknown
1776112552527,200,-274,-6.0205078124999997E-5,0,0,0,1233395,795792,417903,589987,861190,860020,144972,194784,Tag0,unknown
1776112552527,200,-579,-1.272216796875E-4,0,0,0,1233395,795792,417903,589987,861190,860020,144972,194784,Tag0,unknown
1776112552527,200,-714,-1.5688476562500001E-4,0,0,0,1233395,795792,417903,589987,861190,860020,144972,194784,Tag0,unknown
1776112552528,200,-748,-1.6435546875E-4,0,0,0,1233395,795792,417903,589987,861190,860020,144972,194784,Tag0,unknown
1776112552542,200,-714,-1.5688476562500001E-4,0,0,0,1233395,795792,417903,589987,861190,860020,144972,194784,Tag0,unknown
1776112552543,200,-679,-1.491943359375E-4,0,0,0,1233395,795792,417903,589987,861190,860020,144972,194784,Tag0,unknown
1776112552543,200,-892,-1.9599609375000002E-4,0,0,0,1233395,795792,417903,589987,861190,860020,144972,194784,Tag0,unknown
1776112552543,200,-476,-1.0458984375000001E-4,0,0,0,1233395,795792,417903,589987,861190,860020,144972,194784,Tag0,unknown
1776112552544,200,-572,-1.2568359375E-4,0,0,0,1233395,795792,417903,589987,861190,860020,144972,194784,Tag0,unknown
1776112552544,200,-633,-1.3908691406250002E-4,0,0,0,1233395,795792,417903,589987,861190,860020,144972,194784,Tag0,unknown
1776112552544,200,-838,-1.8413085937500002E-4,0,0,0,1233395,795792,417903,589987,861190,860020,144972,194784,Tag0,unknown
1776112552545,200,-819,-1.799560546875E-4,0,0,0,1233395,795792,417903,589987,861190,860020,144972,194784,Tag0,unknown
1776112552560,200,-791,-1.738037109375E-4,0,0,0,1233395,795792,417903,589987,861190,860020,144972,194784,Tag0,unknown
1776112552561,200,-509,-1.118408203125E-4,0,0,0,1233395,795792,417903,589987,861190,860020,144972,194784,Tag0,unknown
1776112552561,200,-487,-1.070068359375E-4,0,0,0,1233395,795792,417903,589987,861190,860020,144972,194784,Tag0,unknown
1776112552562,200,-410,-9.0087890625E-5,0,0,0,1233395,795792,417903,589987,861190,860020,144972,194784,Tag0,unknown
1776112552562,200,-139,-3.0541992187500004E-5,0,0,0,1233395,795792,417903,589987,861190,860020,144972,194784,Tag0,unknown
1776112552562,200,333,7.316894531249999E-5,0,0,0,1233395,795792,417903,589987,861190,860020,144972,194784,Tag0,unknown
1776112552563,200,534,1.17333984375E-4,0,0,0,1233395,795792,417903,589987,861190,860020,144972,194784,Tag0,unknown
1776112552563,200,-379,-8.32763671875E-5,0,0,0,1233395,795792,417903,589987,861190,860020,144972,194784,Tag0,unknown
1776112552563,200,-441,-9.689941406250001E-5,0,0,0,1233395,795792,417903,589987,861190,860020,144972,194784,Tag0,unknown
1776112552575,200,-472,-1.037109375E-4,0,0,0,1233395,795792,417903,589987,861190,860020,144972,194784,Tag0,unknown
1776112552575,200,-442,-9.7119140625E-5,0,0,0,1233395,795792,417903,589987,861190,860020,144972,194784,Tag0,unknown
1776112552576,200,-417,-9.16259765625E-5,0,0,0,1233395,795792,417903,589987,861190,860020,144972,194784,Tag0,unknown
1776112552576,200,-391,-8.591308593750001E-5,0,0,0,1233395,795792,417903,589987,861190,860020,144972,194784,Tag0,unknown
1776112552576,200,-636,-1.3974609375E-4,0,0,0,1233395,795792,417903,589987,861190,860020,144972,194784,Tag0,unknown
1776112552576,200,-621,-1.364501953125E-4,0,0,0,1233395,795792,417903,589987,861190,860020,144972,194784,Tag0,unknown
1776112552577,200,-609,-1.338134765625E-4,0,0,0,1233395,795792,417903,589987,861190,860020,144972,194784,Tag0,unknown
1776112552577,200,-593,-1.3029785156250002E-4,0,0,0,1233395,795792,417903,589987,861190,860020,144972,194784,Tag0,unknown
1776112552592,200,-577,-1.2678222656250002E-4,0,0,0,1233395,795792,417903,589987,861190,860020,144972,194784,Tag0,unknown
1776112552593,200,-563,-1.237060546875E-4,0,0,0,1233395,795792,417903,589987,861190,860020,144972,194784,Tag0,unknown
1776112552593,200,-549,-1.2062988281250001E-4,0,0,0,1233395,795792,417903,589987,861190,860020,144972,194784,Tag0,unknown
1776112552593,200,-521,-1.1447753906250001E-4,0,0,0,1233395,795792,417903,589987,861190,860020,144972,194784,Tag0,unknown
1776112552594,200,44,9.66796875E-6,0,0,0,1233395,795792,417903,589987,861190,860020,144972,194784,Tag0,unknown
1776112552594,200,490,1.07666015625E-4,0,0,0,1233395,795792,417903,589987,861190,860020,144972,194784,Tag0,unknown
1776112552594,200,1267,2.7839355468749997E-4,0,0,0,1233395,795792,417903,589987,861190,860020,144972,194784,Tag0,unknown
1776112552594,200,1200,2.63671875E-4,0,0,0,1233395,795792,417903,589987,861190,860020,144972,194784,Tag0,unknown
1776112552595,200,739,1.623779296875E-4,0,0,0,1233395,795792,417903,589987,861190,860020,144972,194784,Tag0,unknown
1776112552609,200,-5,-1.0986328125E-6,0,0,0,1233395,795792,417903,589987,861190,860020,144972,194784,Tag0,unknown
1776112552609,200,82,1.8017578124999998E-5,0,0,0,1233395,795792,417903,589987,861190,860020,144972,194784,Tag0,unknown
1776112552609,200,1380,3.0322265625E-4,0,0,0,1233395,795792,417903,589987,861190,860020,144972,194784,Tag0,unknown
1776112552609,200,1791,3.935302734375E-4,0,0,0,1233395,795792,417903,589987,861190,860020,144972,194784,Tag0,unknown
1776112552609,200,1791,3.935302734375E-4,0,0,0,1233395,795792,417903,589987,861190,860020,144972,194784,Tag0,unknown
1776112552610,200,1791,3.935302734375E-4,0,0,0,1233395,795792,417903,589987,861190,860020,144972,194784,Tag0,unknown
1776112552610,200,1791,3.935302734375E-4,0,0,0,1233395,795792,417903,589987,861190,860020,144972,194784,Tag0,unknown
1776112552610,200,1686,3.70458984375E-4,0,0,0,1233395,795792,417903,589987,861190,860020,144972,194784,Tag0,unknown
1776112552625,200,1526,3.3530273437500004E-4,0,0,0,1233395,795792,417903,589987,861190,860020,144972,194784,Tag0,unknown
1776112552626,200,1757,3.860595703125E-4,0,0,0,1233395,795792,417903,589987,861190,860020,144972,194784,Tag0,unknown
1776112552626,200,1791,3.935302734375E-4,0,0,0,1233395,795792,417903,589987,861190,860020,144972,194784,Tag0,unknown
1776112552626,200,1791,3.935302734375E-4,0,0,0,1233395,795792,417903,589987,861190,860020,144972,194784,Tag0,unknown
1776112552626,200,1791,3.935302734375E-4,0,0,0,1233395,795792,417903,589987,861190,860020,144972,194784,Tag0,unknown
1776112552626,200,1791,3.935302734375E-4,0,0,0,1233395,795792,417903,589987,861190,860020,144972,194784,Tag0,unknown
1776112552627,200,1791,3.935302734375E-4,0,0,0,1233395,795792,417903,589987,861190,860020,144972,194784,Tag0,unknown
1776112552627,200,1791,3.935302734375E-4,0,0,0,1233395,795792,417903,589987,861190,860020,144972,194784,Tag0,unknown
1776112552627,200,1791,3.935302734375E-4,0,0,0,1233395,795792,417903,589987,861190,860020,144972,194784,Tag0,unknown
1776112552642,200,1257,2.761962890625E-4,0,0,0,1233395,795792,417903,589987,861190,860020,144972,194784,Tag0,unknown
1776112552642,200,1640,3.603515625E-4,0,0,0,1233395,795792,417903,589987,861190,860020,144972,194784,Tag0,unknown
1776112552642,200,1791,3.935302734375E-4,0,0,0,1233395,795792,417903,589987,861190,860020,144972,194784,Tag0,unknown
1776112552642,200,1791,3.935302734375E-4,0,0,0,1233395,795792,417903,589987,861190,860020,144972,194784,Tag0,unknown
1776112552642,200,1791,3.935302734375E-4,0,0,0,1233395,795792,417903,589987,861190,860020,144972,194784,Tag0,unknown
1776112552643,200,1791,3.935302734375E-4,0,0,0,1233395,795792,417903,589987,861190,860020,144972,194784,Tag0,unknown
1776112552643,200,1836,4.0341796875E-4,0,0,0,1233395,795792,417903,589987,861190,860020,144972,194784,Tag0,unknown
1776112552643,200,634,1.39306640625E-4,0,0,0,1233395,795792,417903,589987,861190,860020,144972,194784,Tag0,unknown
1776112552659,200,-135,-2.96630859375E-5,0,0,0,1233395,795792,417903,589987,861190,860020,144972,194784,Tag0,unknown
1776112552659,200,-419,-9.206542968750001E-5,0,0,0,1233395,795792,417903,589987,861190,860020,144972,194784,Tag0,unknown
1776112552659,200,220,4.833984375E-5,0,0,0,1233395,795792,417903,589987,861190,860020,144972,194784,Tag0,unknown
1776112552659,200,1791,3.935302734375E-4,0,0,0,1233395,795792,417903,589987,861190,860020,144972,194784,Tag0,unknown
1776112552659,200,1791,3.935302734375E-4,0,0,0,1233395,795792,417903,589987,861190,860020,144972,194784,Tag0,unknown
1776112552659,200,1791,3.935302734375E-4,0,0,0,1233395,795792,417903,589987,861190,860020,144972,194784,Tag0,unknown
1776112552659,200,1791,3.935302734375E-4,0,0,0,1233395,795792,417903,589987,861190,860020,144972,194784,Tag0,unknown
1776112552660,200,1791,3.935302734375E-4,0,0,0,1233395,795792,417903,589987,861190,860020,144972,194784,Tag0,unknown
1776112552660,200,1791,3.935302734375E-4,0,0,0,1233395,795792,417903,589987,861190,860020,144972,194784,Tag0,unknown
1776112552675,200,1791,3.935302734375E-4,0,0,0,1233395,795792,417903,589987,861190,860020,144972,194784,Tag0,unknown
1776112552676,200,1783,3.917724609375E-4,0,0,0,1233395,795792,417903,589987,861190,860020,144972,194784,Tag0,unknown
1776112552676,200,1712,3.76171875E-4,0,0,0,1233395,795792,417903,589987,861190,860020,144972,194784,Tag0,unknown
1776112552676,200,1898,4.17041015625E-4,0,0,0,1233395,795792,417903,589987,861190,860020,144972,194784,Tag0,unknown
1776112552676,200,1833,4.027587890625E-4,0,0,0,1233395,795792,417903,589987,861190,860020,144972,194784,Tag0,unknown
1776112552676,200,1512,3.322265625E-4,0,0,0,1233395,795792,417903,589987,861190,860020,144972,194784,Tag0,unknown
1776112552677,200,1449,3.183837890625E-4,0,0,0,1233395,795792,417903,589987,861190,860020,144972,194784,Tag0,unknown
1776112552677,200,1645,3.614501953125E-4,0,0,0,1233395,795792,417903,589987,861190,860020,144972,194784,Tag0,unknown
1776112552677,200,1588,3.4892578125E-4,0,0,0,1233395,795792,417903,589987,861190,860020,144972,194784,Tag0,unknown
1776112552693,200,1276,2.8037109375E-4,0,0,0,1233395,795792,417903,589987,861190,860020,144972,194784,Tag0,unknown
1776112552693,200,1223,2.687255859375E-4,0,0,0,1233395,795792,417903,589987,861190,860020,144972,194784,Tag0,unknown
1776112552693,200,1171,2.572998046875E-4,0,0,0,1233395,795792,417903,589987,861190,860020,144972,194784,Tag0,unknown
1776112552693,200,1376,3.0234375000000004E-4,0,0,0,1233395,795792,417903,589987,861190,860020,144972,194784,Tag0,unknown
1776112552694,200,1328,2.91796875E-4,0,0,0,1233395,795792,417903,589987,861190,860020,144972,194784,Tag0,unknown
1776112552694,200,1281,2.814697265625E-4,0,0,0,1233395,795792,417903,589987,861190,860020,144972,194784,Tag0,unknown
1776112552694,200,980,2.1533203125E-4,0,0,0,1233395,795792,417903,589987,861190,860020,144972,194784,Tag0,unknown
1776112552694,200,936,2.0566406249999998E-4,0,0,0,1233395,795792,417903,589987,861190,860020,144972,194784,Tag0,unknown
1776112552710,200,1149,2.5246582031250006E-4,0,0,0,1233395,795792,417903,589987,861190,860020,144972,194784,Tag0,unknown
1776112552710,200,1109,2.436767578125E-4,0,0,0,1233395,795792,417903,589987,861190,860020,144972,194784,Tag0,unknown
1776112552710,200,1068,2.3466796875E-4,0,0,0,1233395,795792,417903,589987,861190,860020,144972,194784,Tag0,unknown
1776112552710,200,1032,2.2675781250000002E-4,0,0,0,1233395,795792,417903,589987,861190,860020,144972,194784,Tag0,unknown
1776112552711,200,740,1.6259765625E-4,0,0,0,1233395,795792,417903,589987,861190,860020,144972,194784,Tag0,unknown
1776112552711,200,706,1.55126953125E-4,0,0,0,1233395,795792,417903,589987,861190,860020,144972,194784,Tag0,unknown
1776112552711,200,673,1.478759765625E-4,0,0,0,1233395,795792,417903,589987,861190,860020,144972,194784,Tag0,unknown
1776112552711,200,640,1.40625E-4,0,0,0,1233395,795792,417903,589987,861190,860020,144972,194784,Tag0,unknown
1776112552726,200,865,1.900634765625E-4,0,0,0,1233395,795792,417903,589987,861190,860020,144972,194784,Tag0,unknown
1776112552726,200,834,1.83251953125E-4,0,0,0,1233395,795792,417903,589987,861190,860020,144972,194784,Tag0,unknown
1776112552726,200,805,1.768798828125E-4,0,0,0,1233395,795792,417903,589987,861190,860020,144972,194784,Tag0,unknown
1776112552726,200,776,1.705078125E-4,0,0,0,1233395,795792,417903,589987,861190,860020,144972,194784,Tag0,unknown
1776112552726,200,493,1.083251953125E-4,0,0,0,1233395,795792,417903,589987,861190,860020,144972,194784,Tag0,unknown
1776112552727,200,468,1.0283203124999999E-4,0,0,0,1233395,795792,417903,589987,861190,860020,144972,194784,Tag0,unknown
1776112552727,200,442,9.7119140625E-5,0,0,0,1233395,795792,417903,589987,861190,860020,144972,194784,Tag0,unknown
1776112552727,200,419,9.206542968750001E-5,0,0,0,1233395,795792,417903,589987,861190,860020,144972,194784,Tag0,unknown
1776112552727,200,395,8.67919921875E-5,0,0,0,1233395,795792,417903,589987,861190,860020,144972,194784,Tag0,unknown
1776112552743,200,629,1.382080078125E-4,0,0,0,1233395,795792,417903,589987,861190,860020,144972,194784,Tag0,unknown
1776112552743,200,609,1.338134765625E-4,0,0,0,1233395,795792,417903,589987,861190,860020,144972,194784,Tag0,unknown
1776112552743,200,586,1.28759765625E-4,0,0,0,1233395,795792,417903,589987,861190,860020,144972,194784,Tag0,unknown
1776112552743,200,567,1.245849609375E-4,0,0,0,1233395,795792,417903,589987,861190,860020,144972,194784,Tag0,unknown
1776112552744,200,548,1.2041015624999999E-4,0,0,0,1233395,795792,417903,589987,861190,860020,144972,194784,Tag0,unknown
1776112552744,200,530,1.16455078125E-4,0,0,0,1233395,795792,417903,589987,861190,860020,144972,194784,Tag0,unknown
1776112552744,200,513,1.127197265625E-4,0,0,0,1233395,795792,417903,589987,861190,860020,144972,194784,Tag0,unknown
1776112552744,200,237,5.2075195312500004E-5,0,0,0,1233395,795792,417903,589987,861190,860020,144972,194784,Tag0,unknown
1776112552744,200,220,4.833984375E-5,0,0,0,1233395,795792,417903,589987,861190,860020,144972,194784,Tag0,unknown
1776112552759,200,205,4.50439453125E-5,0,0,0,1233395,795792,417903,589987,861190,860020,144972,194784,Tag0,unknown
1776112552760,200,189,4.15283203125E-5,0,0,0,1233395,795792,417903,589987,861190,860020,144972,194784,Tag0,unknown
1776112552760,200,177,3.8891601562500006E-5,0,0,0,1233395,795792,417903,589987,861190,860020,144972,194784,Tag0,unknown
1776112552760,200,162,3.5595703125E-5,0,0,0,1233395,795792,417903,589987,861190,860020,144972,194784,Tag0,unknown
1776112552760,200,148,3.251953125E-5,0,0,0,1233395,795792,417903,589987,861190,860020,144972,194784,Tag0,unknown
1776112552760,200,134,2.9443359375000003E-5,0,0,0,1233395,795792,417903,589987,861190,860020,144972,194784,Tag0,unknown
1776112552760,200,377,8.28369140625E-5,0,0,0,1233395,795792,417903,589987,861190,860020,144972,194784,Tag0,unknown
1776112552761,200,364,7.998046875E-5,0,0,0,1233395,795792,417903,589987,861190,860020,144972,194784,Tag0,unknown
1776112552777,200,354,7.778320312500001E-5,0,0,0,1233395,795792,417903,589987,861190,860020,144972,194784,Tag0,unknown
1776112552778,200,342,7.5146484375E-5,0,0,0,1233395,795792,417903,589987,861190,860020,144972,194784,Tag0,unknown
1776112552778,200,331,7.272949218750001E-5,0,0,0,1233395,795792,417903,589987,861190,860020,144972,194784,Tag0,unknown
1776112552779,200,321,7.053222656250001E-5,0,0,0,1233395,795792,417903,589987,861190,860020,144972,194784,Tag0,unknown
1776112552779,200,310,6.8115234375E-5,0,0,0,1233395,795792,417903,589987,861190,860020,144972,194784,Tag0,unknown
1776112552779,200,300,6.591796875E-5,0,0,0,1233395,795792,417903,589987,861190,860020,144972,194784,Tag0,unknown
1776112552780,200,291,6.39404296875E-5,0,0,0,1233395,795792,417903,589987,861190,860020,144972,194784,Tag0,unknown
1776112552780,200,281,6.17431640625E-5,0,0,0,1233395,795792,417903,589987,861190,860020,144972,194784,Tag0,unknown
1776112552780,200,273,5.998535156250001E-5,0,0,0,1233395,795792,417903,589987,861190,860020,144972,194784,Tag0,unknown
1776112552780,200,264,5.80078125E-5,0,0,0,1233395,795792,417903,589987,861190,860020,144972,194784,Tag0,unknown
1776112552792,200,257,5.64697265625E-5,0,0,0,1233395,795792,417903,589987,861190,860020,144972,194784,Tag0,unknown
1776112552793,200,-8,-1.7578125E-6,0,0,0,1233395,795792,417903,589987,861190,860020,144972,194784,Tag0,unknown
1776112552793,200,-15,-3.2958984375E-6,0,0,0,1233395,795792,417903,589987,861190,860020,144972,194784,Tag0,unknown
1776112552793,200,-23,-5.0537109375E-6,0,0,0,1233395,795792,417903,589987,861190,860020,144972,194784,Tag0,unknown
1776112552793,200,-29,-6.3720703125E-6,0,0,0,1233395,795792,417903,589987,861190,860020,144972,194784,Tag0,unknown
1776112552793,200,-37,-8.1298828125E-6,0,0,0,1233395,795792,417903,589987,861190,860020,144972,194784,Tag0,unknown
1776112552794,200,-43,-9.448242187500001E-6,0,0,0,1233395,795792,417903,589987,861190,860020,144972,194784,Tag0,unknown
1776112552809,200,-48,-1.0546875E-5,0,0,0,1233395,795792,417903,589987,861190,860020,144972,194784,Tag0,unknown
1776112552812,200,-56,-1.23046875E-5,0,0,0,2047446,276186,135626,92725,137990,63751,16774432,16748358,Tag0,unknown
1776112552813,200,-61,-1.34033203125E-5,0,0,0,2047446,276186,135626,92725,137990,63751,16774432,16748358,Tag0,unknown
1776112552813,200,-68,-1.4941406250000001E-5,0,0,0,2047446,276186,135626,92725,137990,63751,16774432,16748358,Tag0,unknown
1776112552813,200,-73,-1.6040039062500002E-5,0,0,0,2047446,276186,135626,92725,137990,63751,16774432,16748358,Tag0,unknown
1776112552813,200,-77,-1.69189453125E-5,0,0,0,2047446,276186,135626,92725,137990,63751,16774432,16748358,Tag0,unknown
1776112552814,200,-84,-1.8457031250000004E-5,0,0,0,2047446,276186,135626,92725,137990,63751,16774432,16748358,Tag0,unknown
1776112552814,200,-87,-1.91162109375E-5,0,0,0,2047446,276186,135626,92725,137990,63751,16774432,16748358,Tag0,unknown
1776112552828,200,-92,-2.021484375E-5,0,0,0,2047446,276186,135626,92725,137990,63751,16774432,16748358,Tag0,unknown
1776112552829,200,-94,-2.0654296875000002E-5,0,0,0,2047446,276186,135626,92725,137990,63751,16774432,16748358,Tag0,unknown
1776112552829,200,-95,-2.08740234375E-5,0,0,0,2047446,276186,135626,92725,137990,63751,16774432,16748358,Tag0,unknown
1776112552829,200,-100,-2.197265625E-5,0,0,0,2047446,276186,135626,92725,137990,63751,16774432,16748358,Tag0,unknown
1776112552829,200,125,2.74658203125E-5,0,0,0,2047446,276186,135626,92725,137990,63751,16774432,16748358,Tag0,unknown
1776112552829,200,-157,-3.44970703125E-5,0,0,0,2047446,276186,135626,92725,137990,63751,16774432,16748358,Tag0,unknown
1776112552830,200,-1557,-3.421142578125E-4,0,0,0,2047446,276186,135626,92725,137990,63751,16774432,16748358,Tag0,unknown
1776112552830,200,-2048,-4.5E-4,0,0,0,2047446,276186,135626,92725,137990,63751,16774432,16748358,Tag0,unknown
1776112552830,200,-2048,-4.5E-4,0,0,0,2047446,276186,135626,92725,137990,63751,16774432,16748358,Tag0,unknown
1776112552830,200,-2048,-4.5E-4,0,0,0,2047446,276186,135626,92725,137990,63751,16774432,16748358,Tag0,unknown
1776112552830,200,-2048,-4.5E-4,0,0,0,2047446,276186,135626,92725,137990,63751,16774432,16748358,Tag0,unknown
1776112552843,200,-2048,-4.5E-4,0,0,0,2047446,276186,135626,92725,137990,63751,16774432,16748358,Tag0,unknown
1776112552843,200,-2048,-4.5E-4,0,0,0,2047446,276186,135626,92725,137990,63751,16774432,16748358,Tag0,unknown
1776112552843,200,-2048,-4.5E-4,0,0,0,2047446,276186,135626,92725,137990,63751,16774432,16748358,Tag0,unknown
1776112552843,200,-2048,-4.5E-4,0,0,0,2047446,276186,135626,92725,137990,63751,16774432,16748358,Tag0,unknown
1776112552843,200,-2048,-4.5E-4,0,0,0,2047446,276186,135626,92725,137990,63751,16774432,16748358,Tag0,unknown
1776112552843,200,-2048,-4.5E-4,0,0,0,2047446,276186,135626,92725,137990,63751,16774432,16748358,Tag0,unknown
1776112552844,200,-2048,-4.5E-4,0,0,0,2047446,276186,135626,92725,137990,63751,16774432,16748358,Tag0,unknown
1776112552860,200,-2048,-4.5E-4,0,0,0,2047446,276186,135626,92725,137990,63751,16774432,16748358,Tag0,unknown
1776112552860,200,-2048,-4.5E-4,0,0,0,2047446,276186,135626,92725,137990,63751,16774432,16748358,Tag0,unknown
1776112552860,200,-2048,-4.5E-4,0,0,0,2047446,276186,135626,92725,137990,63751,16774432,16748358,Tag0,unknown
1776112552860,200,-2048,-4.5E-4,0,0,0,2047446,276186,135626,92725,137990,63751,16774432,16748358,Tag0,unknown
1776112552860,200,-2048,-4.5E-4,0,0,0,2047446,276186,135626,92725,137990,63751,16774432,16748358,Tag0,unknown
1776112552861,200,-2048,-4.5E-4,0,0,0,2047446,276186,135626,92725,137990,63751,16774432,16748358,Tag0,unknown
1776112552861,200,-2048,-4.5E-4,0,0,0,2047446,276186,135626,92725,137990,63751,16774432,16748358,Tag0,unknown
1776112552861,200,-2048,-4.5E-4,0,0,0,2047446,276186,135626,92725,137990,63751,16774432,16748358,Tag0,unknown
1776112552861,200,-2048,-4.5E-4,0,0,0,2047446,276186,135626,92725,137990,63751,16774432,16748358,Tag0,unknown
1776112552876,200,-2048,-4.5E-4,0,0,0,2047446,276186,135626,92725,137990,63751,16774432,16748358,Tag0,unknown
1776112552877,200,-2025,-4.449462890625E-4,0,0,0,2047446,276186,135626,92725,137990,63751,16774432,16748358,Tag0,unknown
1776112552877,200,-1950,-4.28466796875E-4,0,0,0,2047446,276186,135626,92725,137990,63751,16774432,16748358,Tag0,unknown
1776112552877,200,-2137,-4.695556640625E-4,0,0,0,2047446,276186,135626,92725,137990,63751,16774432,16748358,Tag0,unknown
1776112552877,200,-2067,-4.541748046875E-4,0,0,0,2047446,276186,135626,92725,137990,63751,16774432,16748358,Tag0,unknown
1776112552877,200,-1745,-3.834228515625E-4,0,0,0,2047446,276186,135626,92725,137990,63751,16774432,16748358,Tag0,unknown
1776112552877,200,-1681,-3.6936035156250003E-4,0,0,0,2047446,276186,135626,92725,137990,63751,16774432,16748358,Tag0,unknown
1776112552878,200,-1874,-4.11767578125E-4,0,0,0,2047446,276186,135626,92725,137990,63751,16774432,16748358,Tag0,unknown
1776112552878,200,-1814,-3.98583984375E-4,0,0,0,2047446,276186,135626,92725,137990,63751,16774432,16748358,Tag0,unknown
1776112552893,200,-1499,-3.2937011718750005E-4,0,0,0,2047446,276186,135626,92725,137990,63751,16774432,16748358,Tag0,unknown
1776112552893,200,-1444,-3.1728515625E-4,0,0,0,2047446,276186,135626,92725,137990,63751,16774432,16748358,Tag0,unknown
1776112552893,200,-1645,-3.614501953125E-4,0,0,0,2047446,276186,135626,92725,137990,63751,16774432,16748358,Tag0,unknown
1776112552893,200,-1594,-3.50244140625E-4,0,0,0,2047446,276186,135626,92725,137990,63751,16774432,16748358,Tag0,unknown
1776112552893,200,-1544,-3.3925781250000004E-4,0,0,0,2047446,276186,135626,92725,137990,63751,16774432,16748358,Tag0,unknown
1776112552894,200,-1239,-2.7224121093750005E-4,0,0,0,2047446,276186,135626,92725,137990,63751,16774432,16748358,Tag0,unknown
1776112552894,200,-1192,-2.619140625E-4,0,0,0,2047446,276186,135626,92725,137990,63751,16774432,16748358,Tag0,unknown
1776112552911,200,-1403,-3.0827636718750004E-4,0,0,0,2047446,276186,135626,92725,137990,63751,16774432,16748358,Tag0,unknown
1776112552911,200,-1361,-2.990478515625E-4,0,0,0,2047446,276186,135626,92725,137990,63751,16774432,16748358,Tag0,unknown
1776112552911,200,-1318,-2.8959960937500003E-4,0,0,0,2047446,276186,135626,92725,137990,63751,16774432,16748358,Tag0,unknown
1776112552911,200,-1021,-2.2434082031249999E-4,0,0,0,2047446,276186,135626,92725,137990,63751,16774432,16748358,Tag0,unknown
1776112552912,200,-983,-2.159912109375E-4,0,0,0,2047446,276186,135626,92725,137990,63751,16774432,16748358,Tag0,unknown
1776112552912,200,-946,-2.0786132812499998E-4,0,0,0,2047446,276186,135626,92725,137990,63751,16774432,16748358,Tag0,unknown
1776112552912,200,-908,-1.9951171875E-4,0,0,0,2047446,276186,135626,92725,137990,63751,16774432,16748358,Tag0,unknown
1776112552912,200,-1130,-2.48291015625E-4,0,0,0,2047446,276186,135626,92725,137990,63751,16774432,16748358,Tag0,unknown
1776112552912,200,-1097,-2.4104003906250002E-4,0,0,0,2047446,276186,135626,92725,137990,63751,16774432,16748358,Tag0,unknown
1776112552912,200,-1065,-2.340087890625E-4,0,0,0,2047446,276186,135626,92725,137990,63751,16774432,16748358,Tag0,unknown
1776112552927,200,-1033,-2.2697753906250002E-4,0,0,0,2047446,276186,135626,92725,137990,63751,16774432,16748358,Tag0,unknown
1776112552928,200,-747,-1.6413574218750003E-4,0,0,0,2047446,276186,135626,92725,137990,63751,16774432,16748358,Tag0,unknown
1776112552928,200,-717,-1.5754394531250002E-4,0,0,0,2047446,276186,135626,92725,137990,63751,16774432,16748358,Tag0,unknown
1776112552929,200,-692,-1.5205078125E-4,0,0,0,2047446,276186,135626,92725,137990,63751,16774432,16748358,Tag0,unknown
1776112552929,200,-664,-1.458984375E-4,0,0,0,2047446,276186,135626,92725,137990,63751,16774432,16748358,Tag0,unknown
1776112552929,200,-893,-1.9621582031250002E-4,0,0,0,2047446,276186,135626,92725,137990,63751,16774432,16748358,Tag0,unknown
1776112552930,200,-870,-1.91162109375E-4,0,0,0,2047446,276186,135626,92725,137990,63751,16774432,16748358,Tag0,unknown
1776112552930,200,-844,-1.8544921875E-4,0,0,0,2047446,276186,135626,92725,137990,63751,16774432,16748358,Tag0,unknown
1776112552943,200,-823,-1.808349609375E-4,0,0,0,2047446,276186,135626,92725,137990,63751,16774432,16748358,Tag0,unknown
1776112552944,200,-801,-1.760009765625E-4,0,0,0,2047446,276186,135626,92725,137990,63751,16774432,16748358,Tag0,unknown
1776112552944,200,-778,-1.70947265625E-4,0,0,0,2047446,276186,135626,92725,137990,63751,16774432,16748358,Tag0,unknown
1776112552944,200,-502,-1.1030273437500001E-4,0,0,0,2047446,276186,135626,92725,137990,63751,16774432,16748358,Tag0,unknown
1776112552945,200,-483,-1.061279296875E-4,0,0,0,2047446,276186,135626,92725,137990,63751,16774432,16748358,Tag0,unknown
1776112552945,200,-462,-1.01513671875E-4,0,0,0,2047446,276186,135626,92725,137990,63751,16774432,16748358,Tag0,unknown
1776112552946,200,-444,-9.755859375E-5,0,0,0,2047446,276186,135626,92725,137990,63751,16774432,16748358,Tag0,unknown
1776112552946,200,-426,-9.3603515625E-5,0,0,0,2047446,276186,135626,92725,137990,63751,16774432,16748358,Tag0,unknown
1776112552959,200,-409,-8.986816406250001E-5,0,0,0,2047446,276186,135626,92725,137990,63751,16774432,16748358,Tag0,unknown
1776112552959,200,-393,-8.63525390625E-5,0,0,0,2047446,276186,135626,92725,137990,63751,16774432,16748358,Tag0,unknown
1776112552959,200,-632,-1.3886718750000002E-4,0,0,0,2047446,276186,135626,92725,137990,63751,16774432,16748358,Tag0,unknown
1776112552959,200,-617,-1.355712890625E-4,0,0,0,2047446,276186,135626,92725,137990,63751,16774432,16748358,Tag0,unknown
1776112552959,200,-602,-1.3227539062500001E-4,0,0,0,2047446,276186,135626,92725,137990,63751,16774432,16748358,Tag0,unknown
1776112552960,200,-587,-1.2897949218750003E-4,0,0,0,2047446,276186,135626,92725,137990,63751,16774432,16748358,Tag0,unknown
1776112552960,200,-574,-1.2612304687500001E-4,0,0,0,2047446,276186,135626,92725,137990,63751,16774432,16748358,Tag0,unknown
1776112552960,200,-562,-1.23486328125E-4,0,0,0,2047446,276186,135626,92725,137990,63751,16774432,16748358,Tag0,unknown
1776112552960,200,-549,-1.2062988281250001E-4,0,0,0,2047446,276186,135626,92725,137990,63751,16774432,16748358,Tag0,unknown
1776112552976,200,-536,-1.1777343750000001E-4,0,0,0,2047446,276186,135626,92725,137990,63751,16774432,16748358,Tag0,unknown
1776112552976,200,-524,-1.1513671875E-4,0,0,0,2047446,276186,135626,92725,137990,63751,16774432,16748358,Tag0,unknown
1776112552977,200,-514,-1.12939453125E-4,0,0,0,2047446,276186,135626,92725,137990,63751,16774432,16748358,Tag0,unknown
1776112552977,200,-246,-5.4052734375E-5,0,0,0,2047446,276186,135626,92725,137990,63751,16774432,16748358,Tag0,unknown
1776112552977,200,-235,-5.16357421875E-5,0,0,0,2047446,276186,135626,92725,137990,63751,16774432,16748358,Tag0,unknown
1776112552977,200,-226,-4.9658203125E-5,0,0,0,2047446,276186,135626,92725,137990,63751,16774432,16748358,Tag0,unknown
1776112552977,200,-215,-4.72412109375E-5,0,0,0,2047446,276186,135626,92725,137990,63751,16774432,16748358,Tag0,unknown
1776112552977,200,-205,-4.50439453125E-5,0,0,0,2047446,276186,135626,92725,137990,63751,16774432,16748358,Tag0,unknown
1776112552977,200,-197,-4.32861328125E-5,0,0,0,2047446,276186,135626,92725,137990,63751,16774432,16748358,Tag0,unknown
1776112552992,200,-187,-4.10888671875E-5,0,0,0,2047446,276186,135626,92725,137990,63751,16774432,16748358,Tag0,unknown
1776112552993,200,-180,-3.955078125E-5,0,0,0,2047446,276186,135626,92725,137990,63751,16774432,16748358,Tag0,unknown
1776112552993,200,-171,-3.75732421875E-5,0,0,0,2047446,276186,135626,92725,137990,63751,16774432,16748358,Tag0,unknown
1776112552993,200,-164,-3.6035156249999995E-5,0,0,0,2047446,276186,135626,92725,137990,63751,16774432,16748358,Tag0,unknown
1776112552993,200,-155,-3.40576171875E-5,0,0,0,2047446,276186,135626,92725,137990,63751,16774432,16748358,Tag0,unknown
1776112552993,200,-149,-3.27392578125E-5,0,0,0,2047446,276186,135626,92725,137990,63751,16774432,16748358,Tag0,unknown
1776112552994,200,-141,-3.09814453125E-5,0,0,0,2047446,276186,135626,92725,137990,63751,16774432,16748358,Tag0,unknown
1776112552994,200,-135,-2.96630859375E-5,0,0,0,2047446,276186,135626,92725,137990,63751,16774432,16748358,Tag0,unknown
1776112553009,200,-129,-2.8344726562500002E-5,0,0,0,2047446,276186,135626,92725,137990,63751,16774432,16748358,Tag0,unknown
1776112553009,200,-378,-8.3056640625E-5,0,0,0,2047446,276186,135626,92725,137990,63751,16774432,16748358,Tag0,unknown
1776112553010,200,-373,-8.19580078125E-5,0,0,0,2047446,276186,135626,92725,137990,63751,16774432,16748358,Tag0,unknown
1776112553010,200,-366,-8.0419921875E-5,0,0,0,2047446,276186,135626,92725,137990,63751,16774432,16748358,Tag0,unknown
1776112553010,200,-361,-7.93212890625E-5,0,0,0,2047446,276186,135626,92725,137990,63751,16774432,16748358,Tag0,unknown
1776112553011,200,-356,-7.822265625E-5,0,0,0,2047446,276186,135626,92725,137990,63751,16774432,16748358,Tag0,unknown
1776112553011,200,-350,-7.6904296875E-5,0,0,0,2047446,276186,135626,92725,137990,63751,16774432,16748358,Tag0,unknown
1776112553011,200,-345,-7.58056640625E-5,0,0,0,2047446,276186,135626,92725,137990,63751,16774432,16748358,Tag0,unknown
1776112553026,200,-341,-7.492675781250002E-5,0,0,0,2047446,276186,135626,92725,137990,63751,16774432,16748358,Tag0,unknown
1776112553027,200,-337,-7.40478515625E-5,0,0,0,2047446,276186,135626,92725,137990,63751,16774432,16748358,Tag0,unknown
1776112553027,200,-331,-7.272949218750001E-5,0,0,0,2047446,276186,135626,92725,137990,63751,16774432,16748358,Tag0,unknown
1776112553027,200,-327,-7.18505859375E-5,0,0,0,2047446,276186,135626,92725,137990,63751,16774432,16748358,Tag0,unknown
1776112553027,200,-323,-7.09716796875E-5,0,0,0,2047446,276186,135626,92725,137990,63751,16774432,16748358,Tag0,unknown
1776112553027,200,-318,-6.9873046875E-5,0,0,0,2047446,276186,135626,92725,137990,63751,16774432,16748358,Tag0,unknown
1776112553027,200,-315,-6.92138671875E-5,0,0,0,2047446,276186,135626,92725,137990,63751,16774432,16748358,Tag0,unknown
1776112553028,200,-312,-6.85546875E-5,0,0,0,2047446,276186,135626,92725,137990,63751,16774432,16748358,Tag0,unknown
1776112553028,200,-309,-6.78955078125E-5,0,0,0,2047446,276186,135626,92725,137990,63751,16774432,16748358,Tag0,unknown
1776112553042,200,-306,-6.723632812500001E-5,0,0,0,2047446,276186,135626,92725,137990,63751,16774432,16748358,Tag0,unknown
1776112553043,200,-301,-6.613769531250001E-5,0,0,0,2047446,276186,135626,92725,137990,63751,16774432,16748358,Tag0,unknown
1776112553043,200,-297,-6.525878906250001E-5,0,0,0,2047446,276186,135626,92725,137990,63751,16774432,16748358,Tag0,unknown
1776112553043,200,-295,-6.48193359375E-5,0,0,0,2047446,276186,135626,92725,137990,63751,16774432,16748358,Tag0,unknown
1776112553043,200,-292,-6.416015625000001E-5,0,0,0,2047446,276186,135626,92725,137990,63751,16774432,16748358,Tag0,unknown
1776112553043,200,-290,-6.3720703125E-5,0,0,0,2047446,276186,135626,92725,137990,63751,16774432,16748358,Tag0,unknown
1776112553043,200,-285,-6.26220703125E-5,0,0,0,2047446,276186,135626,92725,137990,63751,16774432,16748358,Tag0,unknown
1776112553044,200,-282,-6.1962890625E-5,0,0,0,2047446,276186,135626,92725,137990,63751,16774432,16748358,Tag0,unknown
1776112553044,200,-281,-6.17431640625E-5,0,0,0,2047446,276186,135626,92725,137990,63751,16774432,16748358,Tag0,unknown
1776112553059,200,-278,-6.108398437500001E-5,0,0,0,2047446,276186,135626,92725,137990,63751,16774432,16748358,Tag0,unknown
1776112553059,200,-276,-6.064453125E-5,0,0,0,2047446,276186,135626,92725,137990,63751,16774432,16748358,Tag0,unknown
1776112553059,200,-274,-6.0205078124999997E-5,0,0,0,2047446,276186,135626,92725,137990,63751,16774432,16748358,Tag0,unknown
1776112553059,200,-270,-5.9326171875E-5,0,0,0,2047446,276186,135626,92725,137990,63751,16774432,16748358,Tag0,unknown
1776112553060,200,-268,-5.8886718750000006E-5,0,0,0,2047446,276186,135626,92725,137990,63751,16774432,16748358,Tag0,unknown
1776112553060,200,-266,-5.8447265625E-5,0,0,0,2047446,276186,135626,92725,137990,63751,16774432,16748358,Tag0,unknown
1776112553060,200,-265,-5.82275390625E-5,0,0,0,2047446,276186,135626,92725,137990,63751,16774432,16748358,Tag0,unknown
1776112553078,200,-263,-5.7788085937500005E-5,0,0,0,2047446,276186,135626,92725,137990,63751,16774432,16748358,Tag0,unknown
1776112553079,200,-261,-5.73486328125E-5,0,0,0,2047446,276186,135626,92725,137990,63751,16774432,16748358,Tag0,unknown
1776112553079,200,-260,-5.712890625E-5,0,0,0,2047446,276186,135626,92725,137990,63751,16774432,16748358,Tag0,unknown
1776112553079,200,-259,-5.69091796875E-5,0,0,0,2047446,276186,135626,92725,137990,63751,16774432,16748358,Tag0,unknown
1776112553080,200,-257,-5.64697265625E-5,0,0,0,2047446,276186,135626,92725,137990,63751,16774432,16748358,Tag0,unknown
1776112553080,200,0,0.0,0,0,0,2047446,276186,135626,92725,137990,63751,16774432,16748358,Tag0,unknown
1776112553080,200,2,4.39453125E-7,0,0,0,2047446,276186,135626,92725,137990,63751,16774432,16748358,Tag0,unknown
1776112553081,200,3,6.591796875E-7,0,0,0,2047446,276186,135626,92725,137990,63751,16774432,16748358,Tag0,unknown
1776112553081,200,5,1.0986328125E-6,0,0,0,2047446,276186,135626,92725,137990,63751,16774432,16748358,Tag0,unknown
1776112553081,200,6,1.318359375E-6,0,0,0,2047446,276186,135626,92725,137990,63751,16774432,16748358,Tag0,unknown
1776112553081,200,7,1.5380859375E-6,0,0,0,2047446,276186,135626,92725,137990,63751,16774432,16748358,Tag0,unknown
1776112553093,200,8,1.7578125E-6,0,0,0,2047446,276186,135626,92725,137990,63751,16774432,16748358,Tag0,unknown
1776112553094,200,9,1.9775390625E-6,0,0,0,2047446,276186,135626,92725,137990,63751,16774432,16748358,Tag0,unknown
1776112553094,200,10,2.197265625E-6,0,0,0,2047446,276186,135626,92725,137990,63751,16774432,16748358,Tag0,unknown
1776112553094,200,11,2.4169921875E-6,0,0,0,2047446,276186,135626,92725,137990,63751,16774432,16748358,Tag0,unknown
1776112553094,200,11,2.4169921875E-6,0,0,0,2047446,276186,135626,92725,137990,63751,16774432,16748358,Tag0,unknown
1776112553095,200,11,2.4169921875E-6,0,0,0,2047446,276186,135626,92725,137990,63751,16774432,16748358,Tag0,unknown
1776112553095,200,13,2.8564453125E-6,0,0,0,2047446,276186,135626,92725,137990,63751,16774432,16748358,Tag0,unknown
1776112553109,200,16,3.515625E-6,0,0,0,2047446,276186,135626,92725,137990,63751,16774432,16748358,Tag0,unknown
1776112553110,200,17,3.7353515625000003E-6,0,0,0,2047446,276186,135626,92725,137990,63751,16774432,16748358,Tag0,unknown
1776112553110,200,28,6.15234375E-6,0,0,0,2047446,276186,135626,92725,137990,63751,16774432,16748358,Tag0,unknown
1776112553110,200,360,7.91015625E-5,0,0,0,2047446,276186,135626,92725,137990,63751,16774432,16748358,Tag0,unknown
1776112553110,200,1415,3.109130859375E-4,0,0,0,2047446,276186,135626,92725,137990,63751,16774432,16748358,Tag0,unknown
1776112553111,200,1791,3.935302734375E-4,0,0,0,2047446,276186,135626,92725,137990,63751,16774432,16748358,Tag0,unknown
1776112553111,200,1791,3.935302734375E-4,0,0,0,2047446,276186,135626,92725,137990,63751,16774432,16748358,Tag0,unknown
1776112553127,200,1011,2.2214355468749998E-4,0,0,0,2047446,276186,135626,92725,137990,63751,16774432,16748358,Tag0,unknown
1776112553127,200,-164,-3.6035156249999995E-5,0,0,0,2047446,276186,135626,92725,137990,63751,16774432,16748358,Tag0,unknown
1776112553127,200,-602,-1.3227539062500001E-4,0,0,0,2047446,276186,135626,92725,137990,63751,16774432,16748358,Tag0,unknown
1776112553128,200,-524,-1.1513671875E-4,0,0,0,2047446,276186,135626,92725,137990,63751,16774432,16748358,Tag0,unknown
1776112553128,200,327,7.18505859375E-5,0,0,0,2047446,276186,135626,92725,137990,63751,16774432,16748358,Tag0,unknown
1776112553128,200,1628,3.5771484375E-4,0,0,0,2047446,276186,135626,92725,137990,63751,16774432,16748358,Tag0,unknown
1776112553128,200,1791,3.935302734375E-4,0,0,0,2047446,276186,135626,92725,137990,63751,16774432,16748358,Tag0,unknown
1776112553143,200,1791,3.935302734375E-4,0,0,0,2047446,276186,135626,92725,137990,63751,16774432,16748358,Tag0,unknown
1776112553144,200,1791,3.935302734375E-4,0,0,0,2047446,276186,135626,92725,137990,63751,16774432,16748358,Tag0,unknown
1776112553144,200,1148,2.5224609375000003E-4,0,0,0,2047446,276186,135626,92725,137990,63751,16774432,16748358,Tag0,unknown
1776112553144,200,553,1.215087890625E-4,0,0,0,2047446,276186,135626,92725,137990,63751,16774432,16748358,Tag0,unknown
1776112553144,200,282,6.1962890625E-5,0,0,0,2047446,276186,135626,92725,137990,63751,16774432,16748358,Tag0,unknown
1776112553145,200,541,1.1887207031250001E-4,0,0,0,2047446,276186,135626,92725,137990,63751,16774432,16748358,Tag0,unknown
1776112553145,200,128,2.8125E-5,0,0,0,2047446,276186,135626,92725,137990,63751,16774432,16748358,Tag0,unknown
1776112553159,200,-375,-8.23974609375E-5,0,0,0,2047446,276186,135626,92725,137990,63751,16774432,16748358,Tag0,unknown
1776112553160,200,-157,-3.44970703125E-5,0,0,0,2047446,276186,135626,92725,137990,63751,16774432,16748358,Tag0,unknown
1776112553160,200,-521,-1.1447753906250001E-4,0,0,0,2047446,276186,135626,92725,137990,63751,16774432,16748358,Tag0,unknown
1776112553160,200,-772,-1.6962890625000002E-4,0,0,0,2047446,276186,135626,92725,137990,63751,16774432,16748358,Tag0,unknown
1776112553160,200,-769,-1.689697265625E-4,0,0,0,2047446,276186,135626,92725,137990,63751,16774432,16748358,Tag0,unknown
1776112553182,200,-516,-1.1337890625000001E-4,0,0,0,2047446,276186,135626,92725,137990,63751,16774432,16748358,Tag0,unknown
1776112553182,200,633,1.3908691406250002E-4,0,0,0,2047446,276186,135626,92725,137990,63751,16774432,16748358,Tag0,unknown
1776112553182,200,1804,3.9638671875000004E-4,0,0,0,2047446,276186,135626,92725,137990,63751,16774432,16748358,Tag0,unknown
1776112553183,200,1791,3.935302734375E-4,0,0,0,2047446,276186,135626,92725,137990,63751,16774432,16748358,Tag0,unknown
1776112553183,200,1791,3.935302734375E-4,0,0,0,2047446,276186,135626,92725,137990,63751,16774432,16748358,Tag0,unknown
1776112553193,200,1791,3.935302734375E-4,0,0,0,2047446,276186,135626,92725,137990,63751,16774432,16748358,Tag0,unknown
1776112553194,200,1581,3.473876953125E-4,0,0,0,2047446,276186,135626,92725,137990,63751,16774432,16748358,Tag0,unknown
1776112553194,200,-53,-1.1645507812500002E-5,0,0,0,2047446,276186,135626,92725,137990,63751,16774432,16748358,Tag0,unknown
1776112553194,200,-966,-2.12255859375E-4,0,0,0,2047446,276186,135626,92725,137990,63751,16774432,16748358,Tag0,unknown
1776112553194,200,-1335,-2.933349609375E-4,0,0,0,2047446,276186,135626,92725,137990,63751,16774432,16748358,Tag0,unknown
1776112553195,200,-1013,-2.2258300781250002E-4,0,0,0,2047446,276186,135626,92725,137990,63751,16774432,16748358,Tag0,unknown
1776112553195,200,-1115,-2.449951171875E-4,0,0,0,2047446,276186,135626,92725,137990,63751,16774432,16748358,Tag0,unknown
1776112553195,200,-806,-1.7709960937499998E-4,0,0,0,2047446,276186,135626,92725,137990,63751,16774432,16748358,Tag0,unknown
1776112553195,200,-370,-8.1298828125E-5,0,0,0,2047446,276186,135626,92725,137990,63751,16774432,16748358,Tag0,unknown
1776112553196,200,-347,-7.62451171875E-5,0,0,0,2047446,276186,135626,92725,137990,63751,16774432,16748358,Tag0,unknown
1776112553196,200,-810,-1.77978515625E-4,0,0,0,2047446,276186,135626,92725,137990,63751,16774432,16748358,Tag0,unknown
1776112553196,200,-1027,-2.2565917968750003E-4,0,0,0,2047446,276186,135626,92725,137990,63751,16774432,16748358,Tag0,unknown
1776112553196,200,-1057,-2.322509765625E-4,0,0,0,2047446,276186,135626,92725,137990,63751,16774432,16748358,Tag0,unknown
1776112553196,200,-782,-1.7182617187500002E-4,0,0,0,2047446,276186,135626,92725,137990,63751,16774432,16748358,Tag0,unknown
1776112553196,200,364,7.998046875E-5,0,0,0,2047446,276186,135626,92725,137990,63751,16774432,16748358,Tag0,unknown
1776112553196,200,390,8.5693359375E-5,0,0,0,2047446,276186,135626,92725,137990,63751,16774432,16748358,Tag0,unknown
1776112553197,200,-146,-3.2080078125000004E-5,0,0,0,2047446,276186,135626,92725,137990,63751,16774432,16748358,Tag0,unknown
1776112553197,200,-509,-1.118408203125E-4,0,0,0,2047446,276186,135626,92725,137990,63751,16774432,16748358,Tag0,unknown
1776112553197,200,-501,-1.100830078125E-4,0,0,0,2047446,276186,135626,92725,137990,63751,16774432,16748358,Tag0,unknown
1776112553197,200,-179,-3.93310546875E-5,0,0,0,2047446,276186,135626,92725,137990,63751,16774432,16748358,Tag0,unknown
1776112553210,200,-124,-2.724609375E-5,0,0,0,2047446,276186,135626,92725,137990,63751,16774432,16748358,Tag0,unknown
1776112553211,200,-245,-5.38330078125E-5,0,0,0,2047446,276186,135626,92725,137990,63751,16774432,16748358,Tag0,unknown
1776112553211,200,-281,-6.17431640625E-5,0,0,0,2047446,276186,135626,92725,137990,63751,16774432,16748358,Tag0,unknown
1776112553211,200,1065,2.340087890625E-4,0,0,0,2047446,276186,135626,92725,137990,63751,16774432,16748358,Tag0,unknown
1776112553211,200,1791,3.935302734375E-4,0,0,0,2047446,276186,135626,92725,137990,63751,16774432,16748358,Tag0,unknown
1776112553211,200,1791,3.935302734375E-4,0,0,0,2047446,276186,135626,92725,137990,63751,16774432,16748358,Tag0,unknown
1776112553211,200,1791,3.935302734375E-4,0,0,0,2047446,276186,135626,92725,137990,63751,16774432,16748358,Tag0,unknown
1776112553212,200,1791,3.935302734375E-4,0,0,0,2047446,276186,135626,92725,137990,63751,16774432,16748358,Tag0,unknown
1776112553212,200,1791,3.935302734375E-4,0,0,0,2047446,276186,135626,92725,137990,63751,16774432,16748358,Tag0,unknown
1776112553212,200,-44,-9.66796875E-6,0,0,0,2047446,276186,135626,92725,137990,63751,16774432,16748358,Tag0,unknown
1776112553227,200,-1411,-3.100341796875E-4,0,0,0,2047446,276186,135626,92725,137990,63751,16774432,16748358,Tag0,unknown
1776112553227,200,-1451,-3.188232421875E-4,0,0,0,2047446,276186,135626,92725,137990,63751,16774432,16748358,Tag0,unknown
1776112553227,200,-1233,-2.7092285156250003E-4,0,0,0,2047446,276186,135626,92725,137990,63751,16774432,16748358,Tag0,unknown
1776112553227,200,-697,-1.5314941406250002E-4,0,0,0,2047446,276186,135626,92725,137990,63751,16774432,16748358,Tag0,unknown
1776112553227,200,-558,-1.22607421875E-4,0,0,0,2047446,276186,135626,92725,137990,63751,16774432,16748358,Tag0,unknown
1776112553227,200,-1173,-2.577392578125E-4,0,0,0,2047446,276186,135626,92725,137990,63751,16774432,16748358,Tag0,unknown
1776112553228,200,-1661,-3.6496582031250003E-4,0,0,0,2047446,276186,135626,92725,137990,63751,16774432,16748358,Tag0,unknown
1776112553228,200,-1565,-3.438720703125E-4,0,0,0,2047446,276186,135626,92725,137990,63751,16774432,16748358,Tag0,unknown
1776112553244,200,-970,-2.13134765625E-4,0,0,0,2047446,276186,135626,92725,137990,63751,16774432,16748358,Tag0,unknown
1776112553244,200,-339,-7.448730468750001E-5,0,0,0,2047446,276186,135626,92725,137990,63751,16774432,16748358,Tag0,unknown
1776112553244,200,168,3.691406250000001E-5,0,0,0,2047446,276186,135626,92725,137990,63751,16774432,16748358,Tag0,unknown
1776112553244,200,-553,-1.215087890625E-4,0,0,0,2047446,276186,135626,92725,137990,63751,16774432,16748358,Tag0,unknown
1776112553244,200,-1138,-2.50048828125E-4,0,0,0,2047446,276186,135626,92725,137990,63751,16774432,16748358,Tag0,unknown
1776112553244,200,-1156,-2.5400390625E-4,0,0,0,2047446,276186,135626,92725,137990,63751,16774432,16748358,Tag0,unknown
1776112553245,200,-1187,-2.608154296875E-4,0,0,0,2047446,276186,135626,92725,137990,63751,16774432,16748358,Tag0,unknown
1776112553245,200,-1384,-3.041015625E-4,0,0,0,2047446,276186,135626,92725,137990,63751,16774432,16748358,Tag0,unknown
1776112553245,200,-1333,-2.928955078125E-4,0,0,0,2047446,276186,135626,92725,137990,63751,16774432,16748358,Tag0,unknown
1776112553261,200,-1288,-2.830078125E-4,0,0,0,2047446,276186,135626,92725,137990,63751,16774432,16748358,Tag0,unknown
1776112553261,200,-989,-2.173095703125E-4,0,0,0,2047446,276186,135626,92725,137990,63751,16774432,16748358,Tag0,unknown
1776112553262,200,-952,-2.0917968750000003E-4,0,0,0,2047446,276186,135626,92725,137990,63751,16774432,16748358,Tag0,unknown
1776112553262,200,-916,-2.0126953125E-4,0,0,0,2047446,276186,135626,92725,137990,63751,16774432,16748358,Tag0,unknown
1776112553262,200,-1137,-2.498291015625E-4,0,0,0,2047446,276186,135626,92725,137990,63751,16774432,16748358,Tag0,unknown
1776112553262,200,-1101,-2.419189453125E-4,0,0,0,2047446,276186,135626,92725,137990,63751,16774432,16748358,Tag0,unknown
1776112553263,200,-1069,-2.3488769531250002E-4,0,0,0,2047446,276186,135626,92725,137990,63751,16774432,16748358,Tag0,unknown
1776112553263,200,-1037,-2.278564453125E-4,0,0,0,2047446,276186,135626,92725,137990,63751,16774432,16748358,Tag0,unknown
1776112553277,200,-753,-1.6545410156250002E-4,0,0,0,2047446,276186,135626,92725,137990,63751,16774432,16748358,Tag0,unknown
1776112553278,200,-724,-1.5908203125000002E-4,0,0,0,2047446,276186,135626,92725,137990,63751,16774432,16748358,Tag0,unknown
1776112553278,200,-695,-1.527099609375E-4,0,0,0,2047446,276186,135626,92725,137990,63751,16774432,16748358,Tag0,unknown
1776112553278,200,-667,-1.4655761718750001E-4,0,0,0,2047446,276186,135626,92725,137990,63751,16774432,16748358,Tag0,unknown
1776112553278,200,-642,-1.4106445312500002E-4,0,0,0,2047446,276186,135626,92725,137990,63751,16774432,16748358,Tag0,unknown
1776112553278,200,-871,-1.9138183593749998E-4,0,0,0,2047446,276186,135626,92725,137990,63751,16774432,16748358,Tag0,unknown
1776112553278,200,-833,-1.830322265625E-4,0,0,0,2047446,276186,135626,92725,137990,63751,16774432,16748358,Tag0,unknown
1776112553279,200,-471,-1.0349121093750001E-4,0,0,0,2047446,276186,135626,92725,137990,63751,16774432,16748358,Tag0,unknown
1776112553279,200,-411,-9.03076171875E-5,0,0,0,2047446,276186,135626,92725,137990,63751,16774432,16748358,Tag0,unknown
1776112553294,200,-571,-1.254638671875E-4,0,0,0,2047446,276186,135626,92725,137990,63751,16774432,16748358,Tag0,unknown
1776112553295,200,33,7.2509765625E-6,0,0,0,2047446,276186,135626,92725,137990,63751,16774432,16748358,Tag0,unknown
1776112553295,200,152,3.33984375E-5,0,0,0,2047446,276186,135626,92725,137990,63751,16774432,16748358,Tag0,unknown
1776112553295,200,160,3.515625E-5,0,0,0,2047446,276186,135626,92725,137990,63751,16774432,16748358,Tag0,unknown
1776112553296,200,-19,-4.1748046875E-6,0,0,0,2047446,276186,135626,92725,137990,63751,16774432,16748358,Tag0,unknown
1776112553296,200,36,7.91015625E-6,0,0,0,2047446,276186,135626,92725,137990,63751,16774432,16748358,Tag0,unknown
1776112553296,200,376,8.261718750000001E-5,0,0,0,2047446,276186,135626,92725,137990,63751,16774432,16748358,Tag0,unknown
1776112553296,200,929,2.0412597656250002E-4,0,0,0,2047446,276186,135626,92725,137990,63751,16774432,16748358,Tag0,unknown
1776112553311,200,1436,3.1552734375E-4,0,0,0,2047446,276186,135626,92725,137990,63751,16774432,16748358,Tag0,unknown
1776112553312,200,1791,3.935302734375E-4,0,0,0,2047446,276186,135626,92725,137990,63751,16774432,16748358,Tag0,unknown
1776112553312,200,1791,3.935302734375E-4,0,0,0,2047446,276186,135626,92725,137990,63751,16774432,16748358,Tag0,unknown
1776112553312,200,1791,3.935302734375E-4,0,0,0,2047446,276186,135626,92725,137990,63751,16774432,16748358,Tag0,unknown
1776112553313,200,1791,3.935302734375E-4,0,0,0,2047446,276186,135626,92725,137990,63751,16774432,16748358,Tag0,unknown
1776112553313,200,1791,3.935302734375E-4,0,0,0,2047446,276186,135626,92725,137990,63751,16774432,16748358,Tag0,unknown
1776112553313,200,1791,3.935302734375E-4,0,0,0,2047446,276186,135626,92725,137990,63751,16774432,16748358,Tag0,unknown
1776112553313,200,1791,3.935302734375E-4,0,0,0,2047446,276186,135626,92725,137990,63751,16774432,16748358,Tag0,unknown
1776112553313,200,1791,3.935302734375E-4,0,0,0,2047446,276186,135626,92725,137990,63751,16774432,16748358,Tag0,unknown
1776112553328,200,1791,3.935302734375E-4,0,0,0,2047446,276186,135626,92725,137990,63751,16774432,16748358,Tag0,unknown
1776112553328,200,1791,3.935302734375E-4,0,0,0,2047446,276186,135626,92725,137990,63751,16774432,16748358,Tag0,unknown
1776112553328,200,1791,3.935302734375E-4,0,0,0,2047446,276186,135626,92725,137990,63751,16774432,16748358,Tag0,unknown
1776112553329,200,1791,3.935302734375E-4,0,0,0,2047446,276186,135626,92725,137990,63751,16774432,16748358,Tag0,unknown
1776112553329,200,1791,3.935302734375E-4,0,0,0,2047446,276186,135626,92725,137990,63751,16774432,16748358,Tag0,unknown
1776112553329,200,1791,3.935302734375E-4,0,0,0,2047446,276186,135626,92725,137990,63751,16774432,16748358,Tag0,unknown
1776112553329,200,1791,3.935302734375E-4,0,0,0,2047446,276186,135626,92725,137990,63751,16774432,16748358,Tag0,unknown
1776112553329,200,1791,3.935302734375E-4,0,0,0,2047446,276186,135626,92725,137990,63751,16774432,16748358,Tag0,unknown
1776112553345,200,1791,3.935302734375E-4,0,0,0,2047446,276186,135626,92725,137990,63751,16774432,16748358,Tag0,unknown
1776112553345,200,1791,3.935302734375E-4,0,0,0,2047446,276186,135626,92725,137990,63751,16774432,16748358,Tag0,unknown
1776112553345,200,1791,3.935302734375E-4,0,0,0,2047446,276186,135626,92725,137990,63751,16774432,16748358,Tag0,unknown
1776112553346,200,1791,3.935302734375E-4,0,0,0,2047446,276186,135626,92725,137990,63751,16774432,16748358,Tag0,unknown
1776112553346,200,1791,3.935302734375E-4,0,0,0,2047446,276186,135626,92725,137990,63751,16774432,16748358,Tag0,unknown
1776112553346,200,1729,3.799072265625E-4,0,0,0,2047446,276186,135626,92725,137990,63751,16774432,16748358,Tag0,unknown
1776112553346,200,1915,4.207763671875E-4,0,0,0,2047446,276186,135626,92725,137990,63751,16774432,16748358,Tag0,unknown
1776112553347,200,1848,4.060546875E-4,0,0,0,2047446,276186,135626,92725,137990,63751,16774432,16748358,Tag0,unknown
1776112553347,200,1527,3.3552246093749996E-4,0,0,0,2047446,276186,135626,92725,137990,63751,16774432,16748358,Tag0,unknown
1776112553347,200,1464,3.216796875E-4,0,0,0,2047446,276186,135626,92725,137990,63751,16774432,16748358,Tag0,unknown
1776112553360,200,1659,3.645263671875E-4,0,0,0,2047446,276186,135626,92725,137990,63751,16774432,16748358,Tag0,unknown
1776112553360,200,1602,3.52001953125E-4,0,0,0,2047446,276186,135626,92725,137990,63751,16774432,16748358,Tag0,unknown
1776112553360,200,1544,3.3925781250000004E-4,0,0,0,2047446,276186,135626,92725,137990,63751,16774432,16748358,Tag0,unknown
1776112553360,200,1235,2.713623046875E-4,0,0,0,2047446,276186,135626,92725,137990,63751,16774432,16748358,Tag0,unknown
1776112553360,200,1180,2.5927734375E-4,0,0,0,2047446,276186,135626,92725,137990,63751,16774432,16748358,Tag0,unknown
1776112553360,200,1386,3.04541015625E-4,0,0,0,2047446,276186,135626,92725,137990,63751,16774432,16748358,Tag0,unknown
1776112553361,200,1337,2.937744140625E-4,0,0,0,2047446,276186,135626,92725,137990,63751,16774432,16748358,Tag0,unknown
1776112553377,200,1290,2.83447265625E-4,0,0,0,2047446,276186,135626,92725,137990,63751,16774432,16748358,Tag0,unknown
1776112553378,200,988,2.1708984375E-4,0,0,0,2047446,276186,135626,92725,137990,63751,16774432,16748358,Tag0,unknown
1776112553378,200,946,2.0786132812499998E-4,0,0,0,2047446,276186,135626,92725,137990,63751,16774432,16748358,Tag0,unknown
1776112553378,200,902,1.9819335937500002E-4,0,0,0,2047446,276186,135626,92725,137990,63751,16774432,16748358,Tag0,unknown
1776112553378,200,1116,2.4521484375E-4,0,0,0,2047446,276186,135626,92725,137990,63751,16774432,16748358,Tag0,unknown
1776112553378,200,1078,2.3686523437500002E-4,0,0,0,2047446,276186,135626,92725,137990,63751,16774432,16748358,Tag0,unknown
1776112553379,200,1041,2.287353515625E-4,0,0,0,2047446,276186,135626,92725,137990,63751,16774432,16748358,Tag0,unknown
1776112553379,200,747,1.6413574218750003E-4,0,0,0,2047446,276186,135626,92725,137990,63751,16774432,16748358,Tag0,unknown
1776112553379,200,712,1.564453125E-4,0,0,0,2047446,276186,135626,92725,137990,63751,16774432,16748358,Tag0,unknown
1776112553394,200,679,1.491943359375E-4,0,0,0,2047446,276186,135626,92725,137990,63751,16774432,16748358,Tag0,unknown
1776112553395,200,646,1.41943359375E-4,0,0,0,2047446,276186,135626,92725,137990,63751,16774432,16748358,Tag0,unknown
1776112553395,200,871,1.9138183593749998E-4,0,0,0,2047446,276186,135626,92725,137990,63751,16774432,16748358,Tag0,unknown
1776112553395,200,840,1.845703125E-4,0,0,0,2047446,276186,135626,92725,137990,63751,16774432,16748358,Tag0,unknown
1776112553395,200,810,1.77978515625E-4,0,0,0,2047446,276186,135626,92725,137990,63751,16774432,16748358,Tag0,unknown
1776112553395,200,784,1.72265625E-4,0,0,0,2047446,276186,135626,92725,137990,63751,16774432,16748358,Tag0,unknown
1776112553395,200,500,1.0986328125E-4,0,0,0,2047446,276186,135626,92725,137990,63751,16774432,16748358,Tag0,unknown
1776112553396,200,473,1.0393066406249999E-4,0,0,0,2047446,276186,135626,92725,137990,63751,16774432,16748358,Tag0,unknown
1776112553396,200,449,9.86572265625E-5,0,0,0,2047446,276186,135626,92725,137990,63751,16774432,16748358,Tag0,unknown
1776112553411,200,424,9.316406250000001E-5,0,0,0,2047446,276186,135626,92725,137990,63751,16774432,16748358,Tag0,unknown
1776112553412,200,402,8.8330078125E-5,0,0,0,2047446,276186,135626,92725,137990,63751,16774432,16748358,Tag0,unknown
1776112553412,200,634,1.39306640625E-4,0,0,0,2047446,276186,135626,92725,137990,63751,16774432,16748358,Tag0,unknown
1776112553412,200,613,1.3469238281250002E-4,0,0,0,2047446,276186,135626,92725,137990,63751,16774432,16748358,Tag0,unknown
1776112553412,200,593,1.3029785156250002E-4,0,0,0,2047446,276186,135626,92725,137990,63751,16774432,16748358,Tag0,unknown
1776112553413,200,571,1.254638671875E-4,0,0,0,2047446,276186,135626,92725,137990,63751,16774432,16748358,Tag0,unknown
1776112553413,200,552,1.212890625E-4,0,0,0,2047446,276186,135626,92725,137990,63751,16774432,16748358,Tag0,unknown
1776112553413,200,534,1.17333984375E-4,0,0,0,2047446,276186,135626,92725,137990,63751,16774432,16748358,Tag0,unknown
1776112553414,200,516,1.1337890625000001E-4,0,0,0,2047446,276186,135626,92725,137990,63751,16774432,16748358,Tag0,unknown
1776112553428,200,243,5.33935546875E-5,0,0,0,2047446,276186,135626,92725,137990,63751,16774432,16748358,Tag0,unknown
1776112553428,200,226,4.9658203125E-5,0,0,0,2047446,276186,135626,92725,137990,63751,16774432,16748358,Tag0,unknown
1776112553429,200,210,4.6142578125E-5,0,0,0,2047446,276186,135626,92725,137990,63751,16774432,16748358,Tag0,unknown
1776112553429,200,195,4.28466796875E-5,0,0,0,2047446,276186,135626,92725,137990,63751,16774432,16748358,Tag0,unknown
1776112553429,200,180,3.955078125E-5,0,0,0,2047446,276186,135626,92725,137990,63751,16774432,16748358,Tag0,unknown
1776112553429,200,165,3.62548828125E-5,0,0,0,2047446,276186,135626,92725,137990,63751,16774432,16748358,Tag0,unknown
1776112553429,200,151,3.31787109375E-5,0,0,0,2047446,276186,135626,92725,137990,63751,16774432,16748358,Tag0,unknown
1776112553445,200,137,3.0102539062499998E-5,0,0,0,2047446,276186,135626,92725,137990,63751,16774432,16748358,Tag0,unknown
1776112553445,200,380,8.349609375E-5,0,0,0,2047446,276186,135626,92725,137990,63751,16774432,16748358,Tag0,unknown
1776112553445,200,369,8.10791015625E-5,0,0,0,2047446,276186,135626,92725,137990,63751,16774432,16748358,Tag0,unknown
1776112553445,200,357,7.844238281250001E-5,0,0,0,2047446,276186,135626,92725,137990,63751,16774432,16748358,Tag0,unknown
1776112553446,200,345,7.58056640625E-5,0,0,0,2047446,276186,135626,92725,137990,63751,16774432,16748358,Tag0,unknown
1776112553446,200,332,7.294921875E-5,0,0,0,2047446,276186,135626,92725,137990,63751,16774432,16748358,Tag0,unknown
1776112553446,200,323,7.09716796875E-5,0,0,0,2047446,276186,135626,92725,137990,63751,16774432,16748358,Tag0,unknown
1776112553446,200,312,6.85546875E-5,0,0,0,2047446,276186,135626,92725,137990,63751,16774432,16748358,Tag0,unknown
1776112553446,200,301,6.613769531250001E-5,0,0,0,2047446,276186,135626,92725,137990,63751,16774432,16748358,Tag0,unknown
1776112553446,200,293,6.43798828125E-5,0,0,0,2047446,276186,135626,92725,137990,63751,16774432,16748358,Tag0,unknown
1776112553461,200,283,6.218261718750001E-5,0,0,0,2047446,276186,135626,92725,137990,63751,16774432,16748358,Tag0,unknown
1776112553461,200,275,6.04248046875E-5,0,0,0,2047446,276186,135626,92725,137990,63751,16774432,16748358,Tag0,unknown
1776112553461,200,266,5.8447265625E-5,0,0,0,2047446,276186,135626,92725,137990,63751,16774432,16748358,Tag0,unknown
1776112553462,200,258,5.6689453125000004E-5,0,0,0,2047446,276186,135626,92725,137990,63751,16774432,16748358,Tag0,unknown
1776112553462,200,-7,-1.5380859375E-6,0,0,0,2047446,276186,135626,92725,137990,63751,16774432,16748358,Tag0,unknown
1776112553462,200,-13,-2.8564453125E-6,0,0,0,2047446,276186,135626,92725,137990,63751,16774432,16748358,Tag0,unknown
1776112553462,200,-22,-4.833984375E-6,0,0,0,2047446,276186,135626,92725,137990,63751,16774432,16748358,Tag0,unknown
1776112553462,200,-28,-6.15234375E-6,0,0,0,2047446,276186,135626,92725,137990,63751,16774432,16748358,Tag0,unknown
1776112553479,200,-36,-7.91015625E-6,0,0,0,2047446,276186,135626,92725,137990,63751,16774432,16748358,Tag0,unknown
1776112553480,200,-42,-9.228515625000002E-6,0,0,0,2047446,276186,135626,92725,137990,63751,16774432,16748358,Tag0,unknown
1776112553480,200,-47,-1.0327148437500001E-5,0,0,0,2047446,276186,135626,92725,137990,63751,16774432,16748358,Tag0,unknown
1776112553480,200,-54,-1.1865234375000001E-5,0,0,0,2047446,276186,135626,92725,137990,63751,16774432,16748358,Tag0,unknown
1776112553480,200,-60,-1.318359375E-5,0,0,0,2047446,276186,135626,92725,137990,63751,16774432,16748358,Tag0,unknown
1776112553481,200,-67,-1.4721679687500002E-5,0,0,0,2047446,276186,135626,92725,137990,63751,16774432,16748358,Tag0,unknown
1776112553481,200,-71,-1.56005859375E-5,0,0,0,2047446,276186,135626,92725,137990,63751,16774432,16748358,Tag0,unknown
1776112553482,200,-76,-1.669921875E-5,0,0,0,2047446,276186,135626,92725,137990,63751,16774432,16748358,Tag0,unknown
1776112553482,200,-83,-1.82373046875E-5,0,0,0,2047446,276186,135626,92725,137990,63751,16774432,16748358,Tag0,unknown
1776112553495,200,-87,-1.91162109375E-5,0,0,0,2047446,276186,135626,92725,137990,63751,16774432,16748358,Tag0,unknown
1776112553495,200,-91,-1.99951171875E-5,0,0,0,2047446,276186,135626,92725,137990,63751,16774432,16748358,Tag0,unknown
1776112553496,200,-95,-2.08740234375E-5,0,0,0,2047446,276186,135626,92725,137990,63751,16774432,16748358,Tag0,unknown
1776112553496,200,-101,-2.2192382812500002E-5,0,0,0,2047446,276186,135626,92725,137990,63751,16774432,16748358,Tag0,unknown
1776112553496,200,-105,-2.30712890625E-5,0,0,0,2047446,276186,135626,92725,137990,63751,16774432,16748358,Tag0,unknown
1776112553497,200,-108,-2.3730468750000002E-5,0,0,0,2047446,276186,135626,92725,137990,63751,16774432,16748358,Tag0,unknown
1776112553497,200,-108,-2.3730468750000002E-5,0,0,0,2047446,276186,135626,92725,137990,63751,16774432,16748358,Tag0,unknown
1776112553511,200,-109,-2.39501953125E-5,0,0,0,2047446,276186,135626,92725,137990,63751,16774432,16748358,Tag0,unknown
1776112553512,200,-257,-5.64697265625E-5,0,0,0,2047446,276186,135626,92725,137990,63751,16774432,16748358,Tag0,unknown
1776112553512,200,-1111,-2.441162109375E-4,0,0,0,2047446,276186,135626,92725,137990,63751,16774432,16748358,Tag0,unknown
1776112553512,200,-2048,-4.5E-4,0,0,0,2047446,276186,135626,92725,137990,63751,16774432,16748358,Tag0,unknown
1776112553512,200,-2048,-4.5E-4,0,0,0,2047446,276186,135626,92725,137990,63751,16774432,16748358,Tag0,unknown
1776112553513,200,-2048,-4.5E-4,0,0,0,2047446,276186,135626,92725,137990,63751,16774432,16748358,Tag0,unknown
1776112553513,200,-2048,-4.5E-4,0,0,0,2047446,276186,135626,92725,137990,63751,16774432,16748358,Tag0,unknown
1776112553513,200,-2048,-4.5E-4,0,0,0,2047446,276186,135626,92725,137990,63751,16774432,16748358,Tag0,unknown
1776112553513,200,-2048,-4.5E-4,0,0,0,2047446,276186,135626,92725,137990,63751,16774432,16748358,Tag0,unknown
1776112553528,200,-2048,-4.5E-4,0,0,0,2047446,276186,135626,92725,137990,63751,16774432,16748358,Tag0,unknown
1776112553529,200,-2048,-4.5E-4,0,0,0,2047446,276186,135626,92725,137990,63751,16774432,16748358,Tag0,unknown
1776112553529,200,-2048,-4.5E-4,0,0,0,2047446,276186,135626,92725,137990,63751,16774432,16748358,Tag0,unknown
1776112553529,200,-2048,-4.5E-4,0,0,0,2047446,276186,135626,92725,137990,63751,16774432,16748358,Tag0,unknown
1776112553529,200,-2048,-4.5E-4,0,0,0,2047446,276186,135626,92725,137990,63751,16774432,16748358,Tag0,unknown
1776112553529,200,-2048,-4.5E-4,0,0,0,2047446,276186,135626,92725,137990,63751,16774432,16748358,Tag0,unknown
1776112553529,200,-2048,-4.5E-4,0,0,0,2047446,276186,135626,92725,137990,63751,16774432,16748358,Tag0,unknown
1776112553530,200,-2048,-4.5E-4,0,0,0,2047446,276186,135626,92725,137990,63751,16774432,16748358,Tag0,unknown
1776112553530,200,-2048,-4.5E-4,0,0,0,2047446,276186,135626,92725,137990,63751,16774432,16748358,Tag0,unknown
1776112553544,200,-2048,-4.5E-4,0,0,0,2047446,276186,135626,92725,137990,63751,16774432,16748358,Tag0,unknown
1776112553544,200,-2048,-4.5E-4,0,0,0,2047446,276186,135626,92725,137990,63751,16774432,16748358,Tag0,unknown
1776112553545,200,-2048,-4.5E-4,0,0,0,2047446,276186,135626,92725,137990,63751,16774432,16748358,Tag0,unknown
1776112553545,200,-2048,-4.5E-4,0,0,0,2047446,276186,135626,92725,137990,63751,16774432,16748358,Tag0,unknown
1776112553545,200,-2048,-4.5E-4,0,0,0,2047446,276186,135626,92725,137990,63751,16774432,16748358,Tag0,unknown
1776112553545,200,-2048,-4.5E-4,0,0,0,2047446,276186,135626,92725,137990,63751,16774432,16748358,Tag0,unknown
1776112553545,200,-2048,-4.5E-4,0,0,0,2047446,276186,135626,92725,137990,63751,16774432,16748358,Tag0,unknown
1776112553545,200,-1987,-4.365966796875E-4,0,0,0,2047446,276186,135626,92725,137990,63751,16774432,16748358,Tag0,unknown
1776112553562,200,-2170,-4.76806640625E-4,0,0,0,2047446,276186,135626,92725,137990,63751,16774432,16748358,Tag0,unknown
1776112553562,200,-2101,-4.616455078125E-4,0,0,0,2047446,276186,135626,92725,137990,63751,16774432,16748358,Tag0,unknown
1776112553562,200,-1777,-3.904541015625E-4,0,0,0,2047446,276186,135626,92725,137990,63751,16774432,16748358,Tag0,unknown
1776112553562,200,-1713,-3.763916015625E-4,0,0,0,2047446,276186,135626,92725,137990,63751,16774432,16748358,Tag0,unknown
1776112553562,200,-1902,-4.17919921875E-4,0,0,0,2047446,276186,135626,92725,137990,63751,16774432,16748358,Tag0,unknown
1776112553562,200,-1843,-4.049560546875E-4,0,0,0,2047446,276186,135626,92725,137990,63751,16774432,16748358,Tag0,unknown
1776112553563,200,-1528,-3.357421875E-4,0,0,0,2047446,276186,135626,92725,137990,63751,16774432,16748358,Tag0,unknown
1776112553563,200,-1470,-3.22998046875E-4,0,0,0,2047446,276186,135626,92725,137990,63751,16774432,16748358,Tag0,unknown
1776112553563,200,-1416,-3.1113281250000005E-4,0,0,0,2047446,276186,135626,92725,137990,63751,16774432,16748358,Tag0,unknown
1776112553564,200,-1620,-3.5595703125E-4,0,0,0,2047446,276186,135626,92725,137990,63751,16774432,16748358,Tag0,unknown
1776112553578,200,-1569,-3.4475097656250003E-4,0,0,0,2047446,276186,135626,92725,137990,63751,16774432,16748358,Tag0,unknown
1776112553578,200,-1261,-2.770751953125E-4,0,0,0,2047446,276186,135626,92725,137990,63751,16774432,16748358,Tag0,unknown
1776112553578,200,-1214,-2.6674804687500006E-4,0,0,0,2047446,276186,135626,92725,137990,63751,16774432,16748358,Tag0,unknown
1776112553578,200,-1170,-2.57080078125E-4,0,0,0,2047446,276186,135626,92725,137990,63751,16774432,16748358,Tag0,unknown
1776112553579,200,-1381,-3.0344238281250003E-4,0,0,0,2047446,276186,135626,92725,137990,63751,16774432,16748358,Tag0,unknown
1776112553579,200,-1338,-2.93994140625E-4,0,0,0,2047446,276186,135626,92725,137990,63751,16774432,16748358,Tag0,unknown
1776112553579,200,-1298,-2.8520507812500003E-4,0,0,0,2047446,276186,135626,92725,137990,63751,16774432,16748358,Tag0,unknown
1776112553595,200,-1001,-2.1994628906249998E-4,0,0,0,2047446,276186,135626,92725,137990,63751,16774432,16748358,Tag0,unknown
1776112553595,200,-964,-2.1181640625E-4,0,0,0,2047446,276186,135626,92725,137990,63751,16774432,16748358,Tag0,unknown
1776112553596,200,-925,-2.032470703125E-4,0,0,0,2047446,276186,135626,92725,137990,63751,16774432,16748358,Tag0,unknown
1776112553596,200,-1147,-2.520263671875E-4,0,0,0,2047446,276186,135626,92725,137990,63751,16774432,16748358,Tag0,unknown
1776112553596,200,-1113,-2.445556640625E-4,0,0,0,2047446,276186,135626,92725,137990,63751,16774432,16748358,Tag0,unknown
1776112553597,200,-1080,-2.373046875E-4,0,0,0,2047446,276186,135626,92725,137990,63751,16774432,16748358,Tag0,unknown
1776112553597,200,-1048,-2.302734375E-4,0,0,0,2047446,276186,135626,92725,137990,63751,16774432,16748358,Tag0,unknown
1776112553597,200,-761,-1.672119140625E-4,0,0,0,2047446,276186,135626,92725,137990,63751,16774432,16748358,Tag0,unknown
1776112553597,200,-731,-1.6062011718749998E-4,0,0,0,2047446,276186,135626,92725,137990,63751,16774432,16748358,Tag0,unknown
1776112553612,200,-705,-1.549072265625E-4,0,0,0,2047446,276186,135626,92725,137990,63751,16774432,16748358,Tag0,unknown
1776112553612,200,-677,-1.4875488281250002E-4,0,0,0,2047446,276186,135626,92725,137990,63751,16774432,16748358,Tag0,unknown
1776112553612,200,-650,-1.42822265625E-4,0,0,0,2047446,276186,135626,92725,137990,63751,16774432,16748358,Tag0,unknown
1776112553613,200,-882,-1.9379882812500001E-4,0,0,0,2047446,276186,135626,92725,137990,63751,16774432,16748358,Tag0,unknown
1776112553613,200,-855,-1.878662109375E-4,0,0,0,2047446,276186,135626,92725,137990,63751,16774432,16748358,Tag0,unknown
1776112553613,200,-833,-1.830322265625E-4,0,0,0,2047446,276186,135626,92725,137990,63751,16774432,16748358,Tag0,unknown
1776112553613,200,-811,-1.781982421875E-4,0,0,0,2047446,276186,135626,92725,137990,63751,16774432,16748358,Tag0,unknown
1776112553614,200,-791,-1.738037109375E-4,0,0,0,2047446,276186,135626,92725,137990,63751,16774432,16748358,Tag0,unknown
1776112553628,200,-771,-1.694091796875E-4,0,0,0,2047446,276186,135626,92725,137990,63751,16774432,16748358,Tag0,unknown
1776112553629,200,-492,-1.0810546875E-4,0,0,0,2047446,276186,135626,92725,137990,63751,16774432,16748358,Tag0,unknown
1776112553629,200,-472,-1.037109375E-4,0,0,0,2047446,276186,135626,92725,137990,63751,16774432,16748358,Tag0,unknown
1776112553629,200,-454,-9.9755859375E-5,0,0,0,2047446,276186,135626,92725,137990,63751,16774432,16748358,Tag0,unknown
1776112553630,200,-435,-9.55810546875E-5,0,0,0,2047446,276186,135626,92725,137990,63751,16774432,16748358,Tag0,unknown
1776112553630,200,-418,-9.1845703125E-5,0,0,0,2047446,276186,135626,92725,137990,63751,16774432,16748358,Tag0,unknown
1776112553630,200,-401,-8.811035156250001E-5,0,0,0,2047446,276186,135626,92725,137990,63751,16774432,16748358,Tag0,unknown
1776112553630,200,-385,-8.45947265625E-5,0,0,0,2047446,276186,135626,92725,137990,63751,16774432,16748358,Tag0,unknown
1776112553646,200,-626,-1.37548828125E-4,0,0,0,2047446,276186,135626,92725,137990,63751,16774432,16748358,Tag0,unknown
1776112553647,200,-611,-1.3425292968749999E-4,0,0,0,2047446,276186,135626,92725,137990,63751,16774432,16748358,Tag0,unknown
1776112553647,200,-596,-1.3095703125E-4,0,0,0,2047446,276186,135626,92725,137990,63751,16774432,16748358,Tag0,unknown
1776112553647,200,-581,-1.276611328125E-4,0,0,0,2047446,276186,135626,92725,137990,63751,16774432,16748358,Tag0,unknown
1776112553647,200,-567,-1.245849609375E-4,0,0,0,2047446,276186,135626,92725,137990,63751,16774432,16748358,Tag0,unknown
1776112553648,200,-554,-1.2172851562500001E-4,0,0,0,2047446,276186,135626,92725,137990,63751,16774432,16748358,Tag0,unknown
1776112553648,200,-542,-1.19091796875E-4,0,0,0,2047446,276186,135626,92725,137990,63751,16774432,16748358,Tag0,unknown
1776112553648,200,-531,-1.1667480468750001E-4,0,0,0,2047446,276186,135626,92725,137990,63751,16774432,16748358,Tag0,unknown
1776112553649,200,-519,-1.140380859375E-4,0,0,0,2047446,276186,135626,92725,137990,63751,16774432,16748358,Tag0,unknown
1776112553649,200,-251,-5.5151367187500004E-5,0,0,0,2047446,276186,135626,92725,137990,63751,16774432,16748358,Tag0,unknown
1776112553662,200,-242,-5.3173828125000005E-5,0,0,0,2047446,276186,135626,92725,137990,63751,16774432,16748358,Tag0,unknown
1776112553662,200,-230,-5.0537109375E-5,0,0,0,2047446,276186,135626,92725,137990,63751,16774432,16748358,Tag0,unknown
1776112553662,200,-219,-4.81201171875E-5,0,0,0,2047446,276186,135626,92725,137990,63751,16774432,16748358,Tag0,unknown
1776112553662,200,-211,-4.63623046875E-5,0,0,0,2047446,276186,135626,92725,137990,63751,16774432,16748358,Tag0,unknown
1776112553662,200,-201,-4.41650390625E-5,0,0,0,2047446,276186,135626,92725,137990,63751,16774432,16748358,Tag0,unknown
1776112553663,200,-194,-4.2626953125E-5,0,0,0,2047446,276186,135626,92725,137990,63751,16774432,16748358,Tag0,unknown
1776112553663,200,-184,-4.04296875E-5,0,0,0,2047446,276186,135626,92725,137990,63751,16774432,16748358,Tag0,unknown
1776112553663,200,-177,-3.8891601562500006E-5,0,0,0,2047446,276186,135626,92725,137990,63751,16774432,16748358,Tag0,unknown
1776112553678,200,-167,-3.6694335937500004E-5,0,0,0,2047446,276186,135626,92725,137990,63751,16774432,16748358,Tag0,unknown
1776112553679,200,-161,-3.53759765625E-5,0,0,0,2047446,276186,135626,92725,137990,63751,16774432,16748358,Tag0,unknown
1776112553679,200,-152,-3.33984375E-5,0,0,0,2047446,276186,135626,92725,137990,63751,16774432,16748358,Tag0,unknown
1776112553679,200,-146,-3.2080078125000004E-5,0,0,0,2047446,276186,135626,92725,137990,63751,16774432,16748358,Tag0,unknown
1776112553679,200,-137,-3.0102539062499998E-5,0,0,0,2047446,276186,135626,92725,137990,63751,16774432,16748358,Tag0,unknown
1776112553680,200,-132,-2.900390625E-5,0,0,0,2047446,276186,135626,92725,137990,63751,16774432,16748358,Tag0,unknown
1776112553680,200,-381,-8.371582031250001E-5,0,0,0,2047446,276186,135626,92725,137990,63751,16774432,16748358,Tag0,unknown
1776112553680,200,-376,-8.261718750000001E-5,0,0,0,2047446,276186,135626,92725,137990,63751,16774432,16748358,Tag0,unknown
1776112553680,200,-370,-8.1298828125E-5,0,0,0,2047446,276186,135626,92725,137990,63751,16774432,16748358,Tag0,unknown
1776112553680,200,-362,-7.954101562500001E-5,0,0,0,2047446,276186,135626,92725,137990,63751,16774432,16748358,Tag0,unknown
1776112553696,200,-357,-7.844238281250001E-5,0,0,0,2047446,276186,135626,92725,137990,63751,16774432,16748358,Tag0,unknown
1776112553697,200,-353,-7.75634765625E-5,0,0,0,2047446,276186,135626,92725,137990,63751,16774432,16748358,Tag0,unknown
1776112553697,200,-345,-7.58056640625E-5,0,0,0,2047446,276186,135626,92725,137990,63751,16774432,16748358,Tag0,unknown
1776112553698,200,-331,-7.272949218750001E-5,0,0,0,2047446,276186,135626,92725,137990,63751,16774432,16748358,Tag0,unknown
1776112553698,200,-339,-7.448730468750001E-5,0,0,0,2047446,276186,135626,92725,137990,63751,16774432,16748358,Tag0,unknown
1776112553698,200,-334,-7.338867187500001E-5,0,0,0,2047446,276186,135626,92725,137990,63751,16774432,16748358,Tag0,unknown
1776112553713,200,-328,-7.207031249999999E-5,0,0,0,2047446,276186,135626,92725,137990,63751,16774432,16748358,Tag0,unknown
1776112553713,200,-325,-7.14111328125E-5,0,0,0,2047446,276186,135626,92725,137990,63751,16774432,16748358,Tag0,unknown
1776112553713,200,-317,-6.96533203125E-5,0,0,0,2047446,276186,135626,92725,137990,63751,16774432,16748358,Tag0,unknown
1776112553714,200,0,0.0,0,0,0,2047446,276186,135626,92725,137990,63751,16774432,16748358,Tag0,unknown
1776112553714,200,230,5.0537109375E-5,0,0,0,2047446,276186,135626,92725,137990,63751,16774432,16748358,Tag0,unknown
1776112553714,200,1505,3.306884765625E-4,0,0,0,2047446,276186,135626,92725,137990,63751,16774432,16748358,Tag0,unknown
1776112553715,200,1791,3.935302734375E-4,0,0,0,2047446,276186,135626,92725,137990,63751,16774432,16748358,Tag0,unknown
1776112553715,200,1521,3.342041015625E-4,0,0,0,2047446,276186,135626,92725,137990,63751,16774432,16748358,Tag0,unknown
1776112553715,200,1463,3.214599609375E-4,0,0,0,2047446,276186,135626,92725,137990,63751,16774432,16748358,Tag0,unknown
1776112553715,200,1791,3.935302734375E-4,0,0,0,2047446,276186,135626,92725,137990,63751,16774432,16748358,Tag0,unknown
1776112553729,200,1791,3.935302734375E-4,0,0,0,2047446,276186,135626,92725,137990,63751,16774432,16748358,Tag0,unknown
1776112553729,200,1791,3.935302734375E-4,0,0,0,2047446,276186,135626,92725,137990,63751,16774432,16748358,Tag0,unknown
1776112553729,200,1791,3.935302734375E-4,0,0,0,2047446,276186,135626,92725,137990,63751,16774432,16748358,Tag0,unknown
1776112553730,200,1791,3.935302734375E-4,0,0,0,2047446,276186,135626,92725,137990,63751,16774432,16748358,Tag0,unknown
1776112553730,200,1791,3.935302734375E-4,0,0,0,2047446,276186,135626,92725,137990,63751,16774432,16748358,Tag0,unknown
1776112553730,200,1791,3.935302734375E-4,0,0,0,2047446,276186,135626,92725,137990,63751,16774432,16748358,Tag0,unknown
1776112553731,200,1791,3.935302734375E-4,0,0,0,2047446,276186,135626,92725,137990,63751,16774432,16748358,Tag0,unknown
1776112553731,200,1791,3.935302734375E-4,0,0,0,2047446,276186,135626,92725,137990,63751,16774432,16748358,Tag0,unknown
1776112553746,200,1791,3.935302734375E-4,0,0,0,2047446,276186,135626,92725,137990,63751,16774432,16748358,Tag0,unknown
1776112553746,200,1791,3.935302734375E-4,0,0,0,2047446,276186,135626,92725,137990,63751,16774432,16748358,Tag0,unknown
1776112553747,200,1791,3.935302734375E-4,0,0,0,2047446,276186,135626,92725,137990,63751,16774432,16748358,Tag0,unknown
1776112553747,200,1791,3.935302734375E-4,0,0,0,2047446,276186,135626,92725,137990,63751,16774432,16748358,Tag0,unknown
1776112553748,200,1791,3.935302734375E-4,0,0,0,2047446,276186,135626,92725,137990,63751,16774432,16748358,Tag0,unknown
1776112553748,200,1791,3.935302734375E-4,0,0,0,2047446,276186,135626,92725,137990,63751,16774432,16748358,Tag0,unknown
1776112553748,200,1791,3.935302734375E-4,0,0,0,2047446,276186,135626,92725,137990,63751,16774432,16748358,Tag0,unknown
1776112553748,200,1791,3.935302734375E-4,0,0,0,2047446,276186,135626,92725,137990,63751,16774432,16748358,Tag0,unknown
1776112553749,200,1791,3.935302734375E-4,0,0,0,2047446,276186,135626,92725,137990,63751,16774432,16748358,Tag0,unknown
1776112553750,200,1791,3.935302734375E-4,0,0,0,2047446,276186,135626,92725,137990,63751,16774432,16748358,Tag0,unknown
1776112553763,200,1791,3.935302734375E-4,0,0,0,2047446,276186,135626,92725,137990,63751,16774432,16748358,Tag0,unknown
1776112553763,200,1791,3.935302734375E-4,0,0,0,2047446,276186,135626,92725,137990,63751,16774432,16748358,Tag0,unknown
1776112553763,200,1791,3.935302734375E-4,0,0,0,2047446,276186,135626,92725,137990,63751,16774432,16748358,Tag0,unknown
1776112553764,200,1791,3.935302734375E-4,0,0,0,2047446,276186,135626,92725,137990,63751,16774432,16748358,Tag0,unknown
1776112553764,200,1736,3.814453125E-4,0,0,0,2047446,276186,135626,92725,137990,63751,16774432,16748358,Tag0,unknown
1776112553764,200,1667,3.662841796875E-4,0,0,0,2047446,276186,135626,92725,137990,63751,16774432,16748358,Tag0,unknown
1776112553764,200,1856,4.078125E-4,0,0,0,2047446,276186,135626,92725,137990,63751,16774432,16748358,Tag0,unknown
1776112553765,200,1533,3.3684082031250004E-4,0,0,0,2047446,276186,135626,92725,137990,63751,16774432,16748358,Tag0,unknown
1776112553782,200,1472,3.234375E-4,0,0,0,2047446,276186,135626,92725,137990,63751,16774432,16748358,Tag0,unknown
1776112553782,200,1410,3.09814453125E-4,0,0,0,2047446,276186,135626,92725,137990,63751,16774432,16748358,Tag0,unknown
1776112553783,200,1607,3.531005859375E-4,0,0,0,2047446,276186,135626,92725,137990,63751,16774432,16748358,Tag0,unknown
1776112553783,200,1549,3.4035644531250003E-4,0,0,0,2047446,276186,135626,92725,137990,63751,16774432,16748358,Tag0,unknown
1776112553783,200,1239,2.7224121093750005E-4,0,0,0,2047446,276186,135626,92725,137990,63751,16774432,16748358,Tag0,unknown
1776112553783,200,1188,2.6103515625000004E-4,0,0,0,2047446,276186,135626,92725,137990,63751,16774432,16748358,Tag0,unknown
1776112553783,200,1394,3.0629882812500004E-4,0,0,0,2047446,276186,135626,92725,137990,63751,16774432,16748358,Tag0,unknown
1776112553784,200,1344,2.9531250000000006E-4,0,0,0,2047446,276186,135626,92725,137990,63751,16774432,16748358,Tag0,unknown
1776112553784,200,1297,2.849853515625E-4,0,0,0,2047446,276186,135626,92725,137990,63751,16774432,16748358,Tag0,unknown
1776112553784,200,994,2.1840820312500002E-4,0,0,0,2047446,276186,135626,92725,137990,63751,16774432,16748358,Tag0,unknown
1776112553795,200,950,2.08740234375E-4,0,0,0,2047446,276186,135626,92725,137990,63751,16774432,16748358,Tag0,unknown
1776112553796,200,906,1.99072265625E-4,0,0,0,2047446,276186,135626,92725,137990,63751,16774432,16748358,Tag0,unknown
1776112553796,200,1123,2.4675292968750004E-4,0,0,0,2047446,276186,135626,92725,137990,63751,16774432,16748358,Tag0,unknown
1776112553796,200,1082,2.3774414062500003E-4,0,0,0,2047446,276186,135626,92725,137990,63751,16774432,16748358,Tag0,unknown
1776112553796,200,1045,2.296142578125E-4,0,0,0,2047446,276186,135626,92725,137990,63751,16774432,16748358,Tag0,unknown
1776112553797,200,753,1.6545410156250002E-4,0,0,0,2047446,276186,135626,92725,137990,63751,16774432,16748358,Tag0,unknown
1776112553813,200,715,1.571044921875E-4,0,0,0,1150680,196204,36727,68648,265752,16772195,94257,16756466,Tag0,unknown
1776112553813,200,682,1.4985351562500003E-4,0,0,0,1150680,196204,36727,68648,265752,16772195,94257,16756466,Tag0,unknown
1776112553813,200,649,1.4260253906250002E-4,0,0,0,1150680,196204,36727,68648,265752,16772195,94257,16756466,Tag0,unknown
1776112553814,200,874,1.9204101562500002E-4,0,0,0,1150680,196204,36727,68648,265752,16772195,94257,16756466,Tag0,unknown
1776112553814,200,843,1.852294921875E-4,0,0,0,1150680,196204,36727,68648,265752,16772195,94257,16756466,Tag0,unknown
1776112553814,200,813,1.786376953125E-4,0,0,0,1150680,196204,36727,68648,265752,16772195,94257,16756466,Tag0,unknown
1776112553814,200,787,1.729248046875E-4,0,0,0,1150680,196204,36727,68648,265752,16772195,94257,16756466,Tag0,unknown
1776112553815,200,503,1.105224609375E-4,0,0,0,1150680,196204,36727,68648,265752,16772195,94257,16756466,Tag0,unknown
1776112553815,200,475,1.043701171875E-4,0,0,0,1150680,196204,36727,68648,265752,16772195,94257,16756466,Tag0,unknown
1776112553832,200,452,9.931640625E-5,0,0,0,1150680,196204,36727,68648,265752,16772195,94257,16756466,Tag0,unknown
1776112553833,200,426,9.3603515625E-5,0,0,0,1150680,196204,36727,68648,265752,16772195,94257,16756466,Tag0,unknown
1776112553833,200,404,8.876953125000001E-5,0,0,0,1150680,196204,36727,68648,265752,16772195,94257,16756466,Tag0,unknown
1776112553833,200,636,1.3974609375E-4,0,0,0,1150680,196204,36727,68648,265752,16772195,94257,16756466,Tag0,unknown
1776112553834,200,615,1.351318359375E-4,0,0,0,1150680,196204,36727,68648,265752,16772195,94257,16756466,Tag0,unknown
1776112553834,200,595,1.307373046875E-4,0,0,0,1150680,196204,36727,68648,265752,16772195,94257,16756466,Tag0,unknown
1776112553834,200,572,1.2568359375E-4,0,0,0,1150680,196204,36727,68648,265752,16772195,94257,16756466,Tag0,unknown
1776112553834,200,553,1.215087890625E-4,0,0,0,1150680,196204,36727,68648,265752,16772195,94257,16756466,Tag0,unknown
1776112553835,200,535,1.175537109375E-4,0,0,0,1150680,196204,36727,68648,265752,16772195,94257,16756466,Tag0,unknown
1776112553835,200,517,1.135986328125E-4,0,0,0,1150680,196204,36727,68648,265752,16772195,94257,16756466,Tag0,unknown
1776112553835,200,244,5.361328125E-5,0,0,0,1150680,196204,36727,68648,265752,16772195,94257,16756466,Tag0,unknown
1776112553846,200,227,4.98779296875E-5,0,0,0,1150680,196204,36727,68648,265752,16772195,94257,16756466,Tag0,unknown
1776112553846,200,211,4.63623046875E-5,0,0,0,1150680,196204,36727,68648,265752,16772195,94257,16756466,Tag0,unknown
1776112553846,200,196,4.306640625E-5,0,0,0,1150680,196204,36727,68648,265752,16772195,94257,16756466,Tag0,unknown
1776112553846,200,181,3.9770507812500004E-5,0,0,0,1150680,196204,36727,68648,265752,16772195,94257,16756466,Tag0,unknown
1776112553847,200,166,3.6474609375E-5,0,0,0,1150680,196204,36727,68648,265752,16772195,94257,16756466,Tag0,unknown
1776112553847,200,152,3.33984375E-5,0,0,0,1150680,196204,36727,68648,265752,16772195,94257,16756466,Tag0,unknown
1776112553847,200,138,3.0322265625E-5,0,0,0,1150680,196204,36727,68648,265752,16772195,94257,16756466,Tag0,unknown
1776112553861,200,381,8.371582031250001E-5,0,0,0,1150680,196204,36727,68648,265752,16772195,94257,16756466,Tag0,unknown
1776112553862,200,370,8.1298828125E-5,0,0,0,1150680,196204,36727,68648,265752,16772195,94257,16756466,Tag0,unknown
1776112553862,200,357,7.844238281250001E-5,0,0,0,1150680,196204,36727,68648,265752,16772195,94257,16756466,Tag0,unknown
1776112553862,200,345,7.58056640625E-5,0,0,0,1150680,196204,36727,68648,265752,16772195,94257,16756466,Tag0,unknown
1776112553862,200,336,7.382812500000001E-5,0,0,0,1150680,196204,36727,68648,265752,16772195,94257,16756466,Tag0,unknown
1776112553862,200,324,7.119140625E-5,0,0,0,1150680,196204,36727,68648,265752,16772195,94257,16756466,Tag0,unknown
1776112553862,200,313,6.87744140625E-5,0,0,0,1150680,196204,36727,68648,265752,16772195,94257,16756466,Tag0,unknown
1776112553863,200,304,6.6796875E-5,0,0,0,1150680,196204,36727,68648,265752,16772195,94257,16756466,Tag0,unknown
1776112553878,200,294,6.4599609375E-5,0,0,0,1150680,196204,36727,68648,265752,16772195,94257,16756466,Tag0,unknown
1776112553878,200,283,6.218261718750001E-5,0,0,0,1150680,196204,36727,68648,265752,16772195,94257,16756466,Tag0,unknown
1776112553878,200,276,6.064453125E-5,0,0,0,1150680,196204,36727,68648,265752,16772195,94257,16756466,Tag0,unknown
1776112553879,200,266,5.8447265625E-5,0,0,0,1150680,196204,36727,68648,265752,16772195,94257,16756466,Tag0,unknown
1776112553879,200,259,5.69091796875E-5,0,0,0,1150680,196204,36727,68648,265752,16772195,94257,16756466,Tag0,unknown
1776112553879,200,-6,-1.318359375E-6,0,0,0,1150680,196204,36727,68648,265752,16772195,94257,16756466,Tag0,unknown
1776112553879,200,-12,-2.63671875E-6,0,0,0,1150680,196204,36727,68648,265752,16772195,94257,16756466,Tag0,unknown
1776112553879,200,-20,-4.39453125E-6,0,0,0,1150680,196204,36727,68648,265752,16772195,94257,16756466,Tag0,unknown
1776112553896,200,-23,-5.0537109375E-6,0,0,0,1150680,196204,36727,68648,265752,16772195,94257,16756466,Tag0,unknown
1776112553896,200,-28,-6.15234375E-6,0,0,0,1150680,196204,36727,68648,265752,16772195,94257,16756466,Tag0,unknown
1776112553897,200,-37,-8.1298828125E-6,0,0,0,1150680,196204,36727,68648,265752,16772195,94257,16756466,Tag0,unknown
1776112553897,200,-43,-9.448242187500001E-6,0,0,0,1150680,196204,36727,68648,265752,16772195,94257,16756466,Tag0,unknown
1776112553897,200,-52,-1.142578125E-5,0,0,0,1150680,196204,36727,68648,265752,16772195,94257,16756466,Tag0,unknown
1776112553897,200,-57,-1.2524414062500001E-5,0,0,0,1150680,196204,36727,68648,265752,16772195,94257,16756466,Tag0,unknown
1776112553897,200,-63,-1.38427734375E-5,0,0,0,1150680,196204,36727,68648,265752,16772195,94257,16756466,Tag0,unknown
1776112553898,200,-71,-1.56005859375E-5,0,0,0,1150680,196204,36727,68648,265752,16772195,94257,16756466,Tag0,unknown
1776112553898,200,-76,-1.669921875E-5,0,0,0,1150680,196204,36727,68648,265752,16772195,94257,16756466,Tag0,unknown
1776112553913,200,-80,-1.7578125E-5,0,0,0,1150680,196204,36727,68648,265752,16772195,94257,16756466,Tag0,unknown
1776112553914,200,-87,-1.91162109375E-5,0,0,0,1150680,196204,36727,68648,265752,16772195,94257,16756466,Tag0,unknown
1776112553914,200,-91,-1.99951171875E-5,0,0,0,1150680,196204,36727,68648,265752,16772195,94257,16756466,Tag0,unknown
1776112553914,200,-94,-2.0654296875000002E-5,0,0,0,1150680,196204,36727,68648,265752,16772195,94257,16756466,Tag0,unknown
1776112553914,200,-100,-2.197265625E-5,0,0,0,1150680,196204,36727,68648,265752,16772195,94257,16756466,Tag0,unknown
1776112553914,200,-102,-2.2412109374999998E-5,0,0,0,1150680,196204,36727,68648,265752,16772195,94257,16756466,Tag0,unknown
1776112553915,200,-104,-2.28515625E-5,0,0,0,1150680,196204,36727,68648,265752,16772195,94257,16756466,Tag0,unknown
1776112553915,200,-107,-2.35107421875E-5,0,0,0,1150680,196204,36727,68648,265752,16772195,94257,16756466,Tag0,unknown
1776112553915,200,-111,-2.43896484375E-5,0,0,0,1150680,196204,36727,68648,265752,16772195,94257,16756466,Tag0,unknown
1776112553930,200,-117,-2.5708007812499998E-5,0,0,0,1150680,196204,36727,68648,265752,16772195,94257,16756466,Tag0,unknown
1776112553930,200,-120,-2.63671875E-5,0,0,0,1150680,196204,36727,68648,265752,16772195,94257,16756466,Tag0,unknown
1776112553930,200,-125,-2.74658203125E-5,0,0,0,1150680,196204,36727,68648,265752,16772195,94257,16756466,Tag0,unknown
1776112553930,200,124,2.724609375E-5,0,0,0,1150680,196204,36727,68648,265752,16772195,94257,16756466,Tag0,unknown
1776112553931,200,121,2.6586914062500003E-5,0,0,0,1150680,196204,36727,68648,265752,16772195,94257,16756466,Tag0,unknown
1776112553931,200,119,2.6147460937500004E-5,0,0,0,1150680,196204,36727,68648,265752,16772195,94257,16756466,Tag0,unknown
1776112553931,200,118,2.5927734375E-5,0,0,0,1150680,196204,36727,68648,265752,16772195,94257,16756466,Tag0,unknown
1776112553931,200,116,2.548828125E-5,0,0,0,1150680,196204,36727,68648,265752,16772195,94257,16756466,Tag0,unknown
1776112553946,200,113,2.48291015625E-5,0,0,0,1150680,196204,36727,68648,265752,16772195,94257,16756466,Tag0,unknown
1776112553946,200,108,2.3730468750000002E-5,0,0,0,1150680,196204,36727,68648,265752,16772195,94257,16756466,Tag0,unknown
1776112553946,200,105,2.30712890625E-5,0,0,0,1150680,196204,36727,68648,265752,16772195,94257,16756466,Tag0,unknown
1776112553946,200,104,2.28515625E-5,0,0,0,1150680,196204,36727,68648,265752,16772195,94257,16756466,Tag0,unknown
1776112553947,200,102,2.2412109374999998E-5,0,0,0,1150680,196204,36727,68648,265752,16772195,94257,16756466,Tag0,unknown
1776112553947,200,100,2.197265625E-5,0,0,0,1150680,196204,36727,68648,265752,16772195,94257,16756466,Tag0,unknown
1776112553947,200,98,2.1533203125E-5,0,0,0,1150680,196204,36727,68648,265752,16772195,94257,16756466,Tag0,unknown
1776112553947,200,96,2.109375E-5,0,0,0,1150680,196204,36727,68648,265752,16772195,94257,16756466,Tag0,unknown
1776112553947,200,92,2.021484375E-5,0,0,0,1150680,196204,36727,68648,265752,16772195,94257,16756466,Tag0,unknown
1776112553963,200,90,1.9775390625E-5,0,0,0,1150680,196204,36727,68648,265752,16772195,94257,16756466,Tag0,unknown
1776112553964,200,89,1.95556640625E-5,0,0,0,1150680,196204,36727,68648,265752,16772195,94257,16756466,Tag0,unknown
1776112553964,200,87,1.91162109375E-5,0,0,0,1150680,196204,36727,68648,265752,16772195,94257,16756466,Tag0,unknown
1776112553964,200,86,1.8896484375000003E-5,0,0,0,1150680,196204,36727,68648,265752,16772195,94257,16756466,Tag0,unknown
1776112553964,200,84,1.8457031250000004E-5,0,0,0,1150680,196204,36727,68648,265752,16772195,94257,16756466,Tag0,unknown
1776112553964,200,83,1.82373046875E-5,0,0,0,1150680,196204,36727,68648,265752,16772195,94257,16756466,Tag0,unknown
1776112553964,200,82,1.8017578124999998E-5,0,0,0,1150680,196204,36727,68648,265752,16772195,94257,16756466,Tag0,unknown
1776112553965,200,81,1.77978515625E-5,0,0,0,1150680,196204,36727,68648,265752,16772195,94257,16756466,Tag0,unknown
1776112553965,200,77,1.69189453125E-5,0,0,0,1150680,196204,36727,68648,265752,16772195,94257,16756466,Tag0,unknown
1776112553965,200,76,1.669921875E-5,0,0,0,1150680,196204,36727,68648,265752,16772195,94257,16756466,Tag0,unknown
1776112553979,200,75,1.64794921875E-5,0,0,0,1150680,196204,36727,68648,265752,16772195,94257,16756466,Tag0,unknown
1776112553980,200,74,1.6259765625E-5,0,0,0,1150680,196204,36727,68648,265752,16772195,94257,16756466,Tag0,unknown
1776112553980,200,73,1.6040039062500002E-5,0,0,0,1150680,196204,36727,68648,265752,16772195,94257,16756466,Tag0,unknown
1776112553980,200,71,1.56005859375E-5,0,0,0,1150680,196204,36727,68648,265752,16772195,94257,16756466,Tag0,unknown
1776112553980,200,70,1.5380859375E-5,0,0,0,1150680,196204,36727,68648,265752,16772195,94257,16756466,Tag0,unknown
1776112553980,200,69,1.51611328125E-5,0,0,0,1150680,196204,36727,68648,265752,16772195,94257,16756466,Tag0,unknown
1776112553980,200,69,1.51611328125E-5,0,0,0,1150680,196204,36727,68648,265752,16772195,94257,16756466,Tag0,unknown
1776112553997,200,68,1.4941406250000001E-5,0,0,0,1150680,196204,36727,68648,265752,16772195,94257,16756466,Tag0,unknown
1776112553998,200,67,1.4721679687500002E-5,0,0,0,1150680,196204,36727,68648,265752,16772195,94257,16756466,Tag0,unknown
1776112553998,200,66,1.4501953125E-5,0,0,0,1150680,196204,36727,68648,265752,16772195,94257,16756466,Tag0,unknown
1776112553999,200,66,1.4501953125E-5,0,0,0,1150680,196204,36727,68648,265752,16772195,94257,16756466,Tag0,unknown
1776112554000,200,65,1.42822265625E-5,0,0,0,1150680,196204,36727,68648,265752,16772195,94257,16756466,Tag0,unknown
1776112554000,200,64,1.40625E-5,0,0,0,1150680,196204,36727,68648,265752,16772195,94257,16756466,Tag0,unknown
1776112554000,200,64,1.40625E-5,0,0,0,1150680,196204,36727,68648,265752,16772195,94257,16756466,Tag0,unknown
1776112554000,200,61,1.34033203125E-5,0,0,0,1150680,196204,36727,68648,265752,16772195,94257,16756466,Tag0,unknown
1776112554000,200,60,1.318359375E-5,0,0,0,1150680,196204,36727,68648,265752,16772195,94257,16756466,Tag0,unknown
1776112554013,200,59,1.29638671875E-5,0,0,0,1150680,196204,36727,68648,265752,16772195,94257,16756466,Tag0,unknown
1776112554014,200,59,1.29638671875E-5,0,0,0,1150680,196204,36727,68648,265752,16772195,94257,16756466,Tag0,unknown
1776112554015,200,58,1.2744140625E-5,0,0,0,1150680,196204,36727,68648,265752,16772195,94257,16756466,Tag0,unknown
1776112554015,200,57,1.2524414062500001E-5,0,0,0,1150680,196204,36727,68648,265752,16772195,94257,16756466,Tag0,unknown
1776112554015,200,57,1.2524414062500001E-5,0,0,0,1150680,196204,36727,68648,265752,16772195,94257,16756466,Tag0,unknown
1776112554015,200,57,1.2524414062500001E-5,0,0,0,1150680,196204,36727,68648,265752,16772195,94257,16756466,Tag0,unknown
1776112554015,200,56,1.23046875E-5,0,0,0,1150680,196204,36727,68648,265752,16772195,94257,16756466,Tag0,unknown
1776112554016,200,55,1.20849609375E-5,0,0,0,1150680,196204,36727,68648,265752,16772195,94257,16756466,Tag0,unknown
1776112554030,200,55,1.20849609375E-5,0,0,0,1150680,196204,36727,68648,265752,16772195,94257,16756466,Tag0,unknown
1776112554031,200,54,1.1865234375000001E-5,0,0,0,1150680,196204,36727,68648,265752,16772195,94257,16756466,Tag0,unknown
1776112554032,200,54,1.1865234375000001E-5,0,0,0,1150680,196204,36727,68648,265752,16772195,94257,16756466,Tag0,unknown
1776112554033,200,53,1.1645507812500002E-5,0,0,0,1150680,196204,36727,68648,265752,16772195,94257,16756466,Tag0,unknown
1776112554033,200,53,1.1645507812500002E-5,0,0,0,1150680,196204,36727,68648,265752,16772195,94257,16756466,Tag0,unknown
1776112554033,200,53,1.1645507812500002E-5,0,0,0,1150680,196204,36727,68648,265752,16772195,94257,16756466,Tag0,unknown
1776112554034,200,52,1.142578125E-5,0,0,0,1150680,196204,36727,68648,265752,16772195,94257,16756466,Tag0,unknown
1776112554034,200,52,1.142578125E-5,0,0,0,1150680,196204,36727,68648,265752,16772195,94257,16756466,Tag0,unknown
1776112554034,200,52,1.142578125E-5,0,0,0,1150680,196204,36727,68648,265752,16772195,94257,16756466,Tag0,unknown
1776112554035,200,51,1.1206054687499999E-5,0,0,0,1150680,196204,36727,68648,265752,16772195,94257,16756466,Tag0,unknown
1776112554046,200,51,1.1206054687499999E-5,0,0,0,1150680,196204,36727,68648,265752,16772195,94257,16756466,Tag0,unknown
1776112554047,200,50,1.0986328125E-5,0,0,0,1150680,196204,36727,68648,265752,16772195,94257,16756466,Tag0,unknown
1776112554047,200,50,1.0986328125E-5,0,0,0,1150680,196204,36727,68648,265752,16772195,94257,16756466,Tag0,unknown
1776112554047,200,50,1.0986328125E-5,0,0,0,1150680,196204,36727,68648,265752,16772195,94257,16756466,Tag0,unknown
1776112554047,200,49,1.07666015625E-5,0,0,0,1150680,196204,36727,68648,265752,16772195,94257,16756466,Tag0,unknown
1776112554048,200,49,1.07666015625E-5,0,0,0,1150680,196204,36727,68648,265752,16772195,94257,16756466,Tag0,unknown
1776112554048,200,49,1.07666015625E-5,0,0,0,1150680,196204,36727,68648,265752,16772195,94257,16756466,Tag0,unknown
1776112554063,200,48,1.0546875E-5,0,0,0,1150680,196204,36727,68648,265752,16772195,94257,16756466,Tag0,unknown
1776112554063,200,49,1.07666015625E-5,0,0,0,1150680,196204,36727,68648,265752,16772195,94257,16756466,Tag0,unknown
1776112554063,200,48,1.0546875E-5,0,0,0,1150680,196204,36727,68648,265752,16772195,94257,16756466,Tag0,unknown
1776112554064,200,49,1.07666015625E-5,0,0,0,1150680,196204,36727,68648,265752,16772195,94257,16756466,Tag0,unknown
1776112554064,200,48,1.0546875E-5,0,0,0,1150680,196204,36727,68648,265752,16772195,94257,16756466,Tag0,unknown
1776112554064,200,48,1.0546875E-5,0,0,0,1150680,196204,36727,68648,265752,16772195,94257,16756466,Tag0,unknown
1776112554064,200,48,1.0546875E-5,0,0,0,1150680,196204,36727,68648,265752,16772195,94257,16756466,Tag0,unknown
1776112554065,200,49,1.07666015625E-5,0,0,0,1150680,196204,36727,68648,265752,16772195,94257,16756466,Tag0,unknown
1776112554065,200,50,1.0986328125E-5,0,0,0,1150680,196204,36727,68648,265752,16772195,94257,16756466,Tag0,unknown
1776112554080,200,51,1.1206054687499999E-5,0,0,0,1150680,196204,36727,68648,265752,16772195,94257,16756466,Tag0,unknown
1776112554081,200,50,1.0986328125E-5,0,0,0,1150680,196204,36727,68648,265752,16772195,94257,16756466,Tag0,unknown
1776112554081,200,49,1.07666015625E-5,0,0,0,1150680,196204,36727,68648,265752,16772195,94257,16756466,Tag0,unknown
1776112554081,200,48,1.0546875E-5,0,0,0,1150680,196204,36727,68648,265752,16772195,94257,16756466,Tag0,unknown
1776112554082,200,49,1.07666015625E-5,0,0,0,1150680,196204,36727,68648,265752,16772195,94257,16756466,Tag0,unknown
1776112554082,200,51,1.1206054687499999E-5,0,0,0,1150680,196204,36727,68648,265752,16772195,94257,16756466,Tag0,unknown
1776112554096,200,10,2.197265625E-6,0,0,0,1150680,196204,36727,68648,265752,16772195,94257,16756466,Tag0,unknown
1776112554097,200,-620,-1.3623046875E-4,0,0,0,1150680,196204,36727,68648,265752,16772195,94257,16756466,Tag0,unknown
1776112554097,200,-396,-8.701171875000001E-5,0,0,0,1150680,196204,36727,68648,265752,16772195,94257,16756466,Tag0,unknown
1776112554097,200,-615,-1.351318359375E-4,0,0,0,1150680,196204,36727,68648,265752,16772195,94257,16756466,Tag0,unknown
1776112554097,200,-1450,-3.18603515625E-4,0,0,0,1150680,196204,36727,68648,265752,16772195,94257,16756466,Tag0,unknown
1776112554098,200,-2048,-4.5E-4,0,0,0,1150680,196204,36727,68648,265752,16772195,94257,16756466,Tag0,unknown
1776112554098,200,-2048,-4.5E-4,0,0,0,1150680,196204,36727,68648,265752,16772195,94257,16756466,Tag0,unknown
1776112554098,200,-2048,-4.5E-4,0,0,0,1150680,196204,36727,68648,265752,16772195,94257,16756466,Tag0,unknown
1776112554098,200,-2048,-4.5E-4,0,0,0,1150680,196204,36727,68648,265752,16772195,94257,16756466,Tag0,unknown
1776112554099,200,-2048,-4.5E-4,0,0,0,1150680,196204,36727,68648,265752,16772195,94257,16756466,Tag0,unknown
1776112554099,200,-2048,-4.5E-4,0,0,0,1150680,196204,36727,68648,265752,16772195,94257,16756466,Tag0,unknown
1776112554113,200,-2048,-4.5E-4,0,0,0,1150680,196204,36727,68648,265752,16772195,94257,16756466,Tag0,unknown
1776112554114,200,-2048,-4.5E-4,0,0,0,1150680,196204,36727,68648,265752,16772195,94257,16756466,Tag0,unknown
1776112554114,200,-2048,-4.5E-4,0,0,0,1150680,196204,36727,68648,265752,16772195,94257,16756466,Tag0,unknown
1776112554114,200,-1319,-2.898193359375E-4,0,0,0,1150680,196204,36727,68648,265752,16772195,94257,16756466,Tag0,unknown
1776112554115,200,288,6.328125E-5,0,0,0,1150680,196204,36727,68648,265752,16772195,94257,16756466,Tag0,unknown
1776112554115,200,502,1.1030273437500001E-4,0,0,0,1150680,196204,36727,68648,265752,16772195,94257,16756466,Tag0,unknown
1776112554115,200,484,1.0634765625000001E-4,0,0,0,1150680,196204,36727,68648,265752,16772195,94257,16756466,Tag0,unknown
1776112554130,200,297,6.525878906250001E-5,0,0,0,1150680,196204,36727,68648,265752,16772195,94257,16756466,Tag0,unknown
1776112554131,200,-341,-7.492675781250002E-5,0,0,0,1150680,196204,36727,68648,265752,16772195,94257,16756466,Tag0,unknown
1776112554131,200,-501,-1.100830078125E-4,0,0,0,1150680,196204,36727,68648,265752,16772195,94257,16756466,Tag0,unknown
1776112554131,200,-1156,-2.5400390625E-4,0,0,0,1150680,196204,36727,68648,265752,16772195,94257,16756466,Tag0,unknown
1776112554131,200,-1950,-4.28466796875E-4,0,0,0,1150680,196204,36727,68648,265752,16772195,94257,16756466,Tag0,unknown
1776112554132,200,-2048,-4.5E-4,0,0,0,1150680,196204,36727,68648,265752,16772195,94257,16756466,Tag0,unknown
1776112554132,200,-2048,-4.5E-4,0,0,0,1150680,196204,36727,68648,265752,16772195,94257,16756466,Tag0,unknown
1776112554132,200,-2048,-4.5E-4,0,0,0,1150680,196204,36727,68648,265752,16772195,94257,16756466,Tag0,unknown
1776112554132,200,-1877,-4.124267578125E-4,0,0,0,1150680,196204,36727,68648,265752,16772195,94257,16756466,Tag0,unknown
1776112554133,200,-1067,-2.344482421875E-4,0,0,0,1150680,196204,36727,68648,265752,16772195,94257,16756466,Tag0,unknown
1776112554133,200,-80,-1.7578125E-5,0,0,0,1150680,196204,36727,68648,265752,16772195,94257,16756466,Tag0,unknown
1776112554147,200,920,2.021484375E-4,0,0,0,1150680,196204,36727,68648,265752,16772195,94257,16756466,Tag0,unknown
1776112554148,200,1521,3.342041015625E-4,0,0,0,1150680,196204,36727,68648,265752,16772195,94257,16756466,Tag0,unknown
1776112554148,200,1791,3.935302734375E-4,0,0,0,1150680,196204,36727,68648,265752,16772195,94257,16756466,Tag0,unknown
1776112554149,200,1791,3.935302734375E-4,0,0,0,1150680,196204,36727,68648,265752,16772195,94257,16756466,Tag0,unknown
1776112554149,200,1791,3.935302734375E-4,0,0,0,1150680,196204,36727,68648,265752,16772195,94257,16756466,Tag0,unknown
1776112554149,200,1791,3.935302734375E-4,0,0,0,1150680,196204,36727,68648,265752,16772195,94257,16756466,Tag0,unknown
1776112554149,200,1700,3.7353515625E-4,0,0,0,1150680,196204,36727,68648,265752,16772195,94257,16756466,Tag0,unknown
1776112554149,200,1483,3.258544921875E-4,0,0,0,1150680,196204,36727,68648,265752,16772195,94257,16756466,Tag0,unknown
1776112554164,200,1350,2.96630859375E-4,0,0,0,1150680,196204,36727,68648,265752,16772195,94257,16756466,Tag0,unknown
1776112554164,200,154,3.3837890625E-5,0,0,0,1150680,196204,36727,68648,265752,16772195,94257,16756466,Tag0,unknown
1776112554164,200,260,5.712890625E-5,0,0,0,1150680,196204,36727,68648,265752,16772195,94257,16756466,Tag0,unknown
1776112554165,200,1256,2.759765625E-4,0,0,0,1150680,196204,36727,68648,265752,16772195,94257,16756466,Tag0,unknown
1776112554165,200,1819,3.9968261718750005E-4,0,0,0,1150680,196204,36727,68648,265752,16772195,94257,16756466,Tag0,unknown
1776112554166,200,1492,3.2783203125E-4,0,0,0,1150680,196204,36727,68648,265752,16772195,94257,16756466,Tag0,unknown
1776112554166,200,1203,2.643310546875E-4,0,0,0,1150680,196204,36727,68648,265752,16772195,94257,16756466,Tag0,unknown
1776112554166,200,-817,-1.7951660156250002E-4,0,0,0,1150680,196204,36727,68648,265752,16772195,94257,16756466,Tag0,unknown
1776112554181,200,-2048,-4.5E-4,0,0,0,1150680,196204,36727,68648,265752,16772195,94257,16756466,Tag0,unknown
1776112554181,200,-2048,-4.5E-4,0,0,0,1150680,196204,36727,68648,265752,16772195,94257,16756466,Tag0,unknown
1776112554182,200,-1713,-3.763916015625E-4,0,0,0,1150680,196204,36727,68648,265752,16772195,94257,16756466,Tag0,unknown
1776112554182,200,-1179,-2.5905761718750004E-4,0,0,0,1150680,196204,36727,68648,265752,16772195,94257,16756466,Tag0,unknown
1776112554182,200,-1629,-3.5793457031250004E-4,0,0,0,1150680,196204,36727,68648,265752,16772195,94257,16756466,Tag0,unknown
1776112554182,200,-2017,-4.431884765625E-4,0,0,0,1150680,196204,36727,68648,265752,16772195,94257,16756466,Tag0,unknown
1776112554183,200,-2048,-4.5E-4,0,0,0,1150680,196204,36727,68648,265752,16772195,94257,16756466,Tag0,unknown
1776112554184,200,-2048,-4.5E-4,0,0,0,1150680,196204,36727,68648,265752,16772195,94257,16756466,Tag0,unknown
1776112554197,200,-2048,-4.5E-4,0,0,0,1150680,196204,36727,68648,265752,16772195,94257,16756466,Tag0,unknown
1776112554198,200,-2048,-4.5E-4,0,0,0,1150680,196204,36727,68648,265752,16772195,94257,16756466,Tag0,unknown
1776112554198,200,-953,-2.093994140625E-4,0,0,0,1150680,196204,36727,68648,265752,16772195,94257,16756466,Tag0,unknown
1776112554198,200,-124,-2.724609375E-5,0,0,0,1150680,196204,36727,68648,265752,16772195,94257,16756466,Tag0,unknown
1776112554198,200,242,5.3173828125000005E-5,0,0,0,1150680,196204,36727,68648,265752,16772195,94257,16756466,Tag0,unknown
1776112554199,200,-353,-7.75634765625E-5,0,0,0,1150680,196204,36727,68648,265752,16772195,94257,16756466,Tag0,unknown
1776112554199,200,-1195,-2.625732421875E-4,0,0,0,1150680,196204,36727,68648,265752,16772195,94257,16756466,Tag0,unknown
1776112554199,200,-2048,-4.5E-4,0,0,0,1150680,196204,36727,68648,265752,16772195,94257,16756466,Tag0,unknown
1776112554215,200,-2048,-4.5E-4,0,0,0,1150680,196204,36727,68648,265752,16772195,94257,16756466,Tag0,unknown
1776112554215,200,-2048,-4.5E-4,0,0,0,1150680,196204,36727,68648,265752,16772195,94257,16756466,Tag0,unknown
1776112554216,200,-953,-2.093994140625E-4,0,0,0,1150680,196204,36727,68648,265752,16772195,94257,16756466,Tag0,unknown
1776112554216,200,643,1.412841796875E-4,0,0,0,1150680,196204,36727,68648,265752,16772195,94257,16756466,Tag0,unknown
1776112554216,200,1791,3.935302734375E-4,0,0,0,1150680,196204,36727,68648,265752,16772195,94257,16756466,Tag0,unknown
1776112554217,200,1771,3.891357421875E-4,0,0,0,1150680,196204,36727,68648,265752,16772195,94257,16756466,Tag0,unknown
1776112554217,200,737,1.6193847656250003E-4,0,0,0,1150680,196204,36727,68648,265752,16772195,94257,16756466,Tag0,unknown
1776112554217,200,-426,-9.3603515625E-5,0,0,0,1150680,196204,36727,68648,265752,16772195,94257,16756466,Tag0,unknown
1776112554217,200,-1528,-3.357421875E-4,0,0,0,1150680,196204,36727,68648,265752,16772195,94257,16756466,Tag0,unknown
1776112554218,200,-978,-2.1489257812500002E-4,0,0,0,1150680,196204,36727,68648,265752,16772195,94257,16756466,Tag0,unknown
1776112554231,200,488,1.072265625E-4,0,0,0,1150680,196204,36727,68648,265752,16772195,94257,16756466,Tag0,unknown
1776112554232,200,1651,3.627685546875E-4,0,0,0,1150680,196204,36727,68648,265752,16772195,94257,16756466,Tag0,unknown
1776112554232,200,1719,3.7770996093750003E-4,0,0,0,1150680,196204,36727,68648,265752,16772195,94257,16756466,Tag0,unknown
1776112554232,200,1791,3.935302734375E-4,0,0,0,1150680,196204,36727,68648,265752,16772195,94257,16756466,Tag0,unknown
1776112554232,200,1545,3.394775390625E-4,0,0,0,1150680,196204,36727,68648,265752,16772195,94257,16756466,Tag0,unknown
1776112554233,200,1043,2.2917480468750002E-4,0,0,0,1150680,196204,36727,68648,265752,16772195,94257,16756466,Tag0,unknown
1776112554233,200,1036,2.2763671875E-4,0,0,0,1150680,196204,36727,68648,265752,16772195,94257,16756466,Tag0,unknown
1776112554233,200,468,1.0283203124999999E-4,0,0,0,1150680,196204,36727,68648,265752,16772195,94257,16756466,Tag0,unknown
1776112554249,200,1126,2.47412109375E-4,0,0,0,1150680,196204,36727,68648,265752,16772195,94257,16756466,Tag0,unknown
1776112554249,200,1791,3.935302734375E-4,0,0,0,1150680,196204,36727,68648,265752,16772195,94257,16756466,Tag0,unknown
1776112554249,200,1791,3.935302734375E-4,0,0,0,1150680,196204,36727,68648,265752,16772195,94257,16756466,Tag0,unknown
1776112554249,200,1791,3.935302734375E-4,0,0,0,1150680,196204,36727,68648,265752,16772195,94257,16756466,Tag0,unknown
1776112554249,200,1791,3.935302734375E-4,0,0,0,1150680,196204,36727,68648,265752,16772195,94257,16756466,Tag0,unknown
1776112554249,200,1729,3.799072265625E-4,0,0,0,1150680,196204,36727,68648,265752,16772195,94257,16756466,Tag0,unknown
1776112554249,200,1914,4.2055664062500003E-4,0,0,0,1150680,196204,36727,68648,265752,16772195,94257,16756466,Tag0,unknown
1776112554250,200,1847,4.0583496093749997E-4,0,0,0,1150680,196204,36727,68648,265752,16772195,94257,16756466,Tag0,unknown
